COUNTER,INTERPOLATED,AF3,F7,F3,FC5,T7,P7,O1,O2,P8,T8,FC6,F4,F8,AF4,RAW_CQ,GYROX,GYROY,MARKER,SYNC,CQ_AF3,CQ_F7,CQ_F3,CQ_FC5,CQ_T7,CQ_P7,CQ_O1,CQ_O2,CQ_P8,CQ_T8,CQ_FC6,CQ_F4,CQ_F8,CQ_AF4,CQ_CMS,CQ_DRL
78.0,0.0,4202.564102564104,4151.794871794873,4172.307692307694,4188.20512820513,4165.128205128207,4179.487179487181,4052.3076923076937,4184.615384615386,4178.46153846154,4190.256410256412,4195.384615384617,4217.94871794872,3980.512820512822,4180.000000000002,807.0,2044.0,2043.0,0.0,0.0,0.0,0.0,0.0,0.0,0.0,0.0,0.0,0.0,0.0,0.0,0.0,0.0,0.0,0.0,0.0,0.0
79.0,0.0,4209.23076923077,4166.153846153848,4180.000000000002,4202.564102564104,4170.769230769232,4178.97435897436,4104.102564102565,4196.410256410258,4182.051282051283,4187.692307692309,4194.3589743589755,4230.769230769232,3982.564102564104,4188.20512820513,825.0,2044.0,2044.0,0.0,0.0,0.0,0.0,0.0,0.0,0.0,0.0,0.0,0.0,0.0,0.0,0.0,0.0,0.0,0.0,0.0,0.0
80.0,0.0,4193.333333333335,4154.3589743589755,4159.487179487181,4192.8205128205145,4168.71794871795,4179.487179487181,4111.282051282053,4190.769230769232,4173.846153846155,4186.153846153848,4190.256410256412,4215.384615384617,3971.2820512820526,4176.410256410258,839.0,2045.0,2044.0,0.0,0.0,0.0,0.0,0.0,0.0,0.0,0.0,0.0,0.0,0.0,0.0,0.0,0.0,0.0,0.0,0.0,0.0
81.0,0.0,4193.846153846155,4154.3589743589755,4154.871794871797,4180.512820512822,4167.692307692309,4177.94871794872,4094.358974358976,4177.94871794872,4173.846153846155,4191.282051282053,4194.3589743589755,4208.71794871795,3971.2820512820526,4171.282051282053,845.0,2044.0,2043.0,0.0,0.0,0.0,0.0,0.0,0.0,0.0,0.0,0.0,0.0,0.0,0.0,0.0,0.0,0.0,0.0,0.0,0.0
82.0,0.0,4198.46153846154,4155.897435897437,4165.641025641027,4153.333333333335,4172.8205128205145,4172.307692307694,4080.0000000000014,4189.743589743592,4182.564102564104,4190.256410256412,4200.000000000002,4213.333333333335,3967.692307692309,4175.897435897437,807.0,2044.0,2041.0,0.0,0.0,0.0,0.0,0.0,0.0,0.0,0.0,0.0,0.0,0.0,0.0,0.0,0.0,0.0,0.0,0.0,0.0
83.0,0.0,4176.410256410258,4144.615384615386,4145.128205128207,4145.128205128207,4167.692307692309,4168.20512820513,4036.9230769230785,4191.282051282053,4170.256410256412,4182.564102564104,4182.564102564104,4206.153846153848,3954.8717948717963,4163.589743589745,825.0,2044.0,2043.0,0.0,0.0,0.0,0.0,0.0,0.0,0.0,0.0,0.0,0.0,0.0,0.0,0.0,0.0,0.0,0.0,0.0,0.0
84.0,0.0,4185.641025641027,4159.487179487181,4150.256410256412,4189.23076923077,4167.692307692309,4174.3589743589755,3989.743589743591,4172.8205128205145,4159.487179487181,4185.641025641027,4174.3589743589755,4218.46153846154,3963.589743589745,4175.384615384617,839.0,2044.0,2042.0,0.0,0.0,0.0,0.0,0.0,0.0,0.0,0.0,0.0,0.0,0.0,0.0,0.0,0.0,0.0,0.0,0.0,0.0
85.0,0.0,4204.102564102565,4174.3589743589755,4168.71794871795,4191.282051282053,4165.641025641027,4173.846153846155,3991.7948717948734,4168.71794871795,4166.153846153848,4190.256410256412,4183.076923076925,4220.512820512822,3973.333333333335,4188.20512820513,845.0,2042.0,2043.0,0.0,0.0,0.0,0.0,0.0,0.0,0.0,0.0,0.0,0.0,0.0,0.0,0.0,0.0,0.0,0.0,0.0,0.0
86.0,0.0,4192.307692307694,4161.538461538463,4162.051282051283,4147.179487179489,4165.641025641027,4170.769230769232,4032.8205128205145,4177.94871794872,4171.282051282053,4186.666666666668,4185.128205128207,4205.641025641027,3967.692307692309,4170.769230769232,807.0,2043.0,2044.0,0.0,0.0,0.0,0.0,0.0,0.0,0.0,0.0,0.0,0.0,0.0,0.0,0.0,0.0,0.0,0.0,0.0,0.0
87.0,0.0,4208.20512820513,4170.256410256412,4178.46153846154,4164.615384615386,4171.282051282053,4178.97435897436,4053.333333333335,4193.333333333335,4180.000000000002,4190.256410256412,4192.8205128205145,4237.94871794872,3983.589743589745,4188.71794871795,825.0,2042.0,2044.0,0.0,0.0,0.0,0.0,0.0,0.0,0.0,0.0,0.0,0.0,0.0,0.0,0.0,0.0,0.0,0.0,0.0,0.0
88.0,0.0,4230.256410256412,4188.20512820513,4197.94871794872,4202.564102564104,4166.666666666668,4184.102564102565,4040.0000000000014,4204.615384615386,4186.666666666668,4195.384615384617,4200.512820512822,4263.589743589745,3995.384615384617,4215.384615384617,839.0,2042.0,2044.0,0.0,0.0,0.0,0.0,0.0,0.0,0.0,0.0,0.0,0.0,0.0,0.0,0.0,0.0,0.0,0.0,0.0,0.0
89.0,0.0,4196.410256410258,4182.564102564104,4162.564102564104,4189.743589743592,4168.20512820513,4181.0256410256425,4001.5384615384633,4189.743589743592,4178.97435897436,4190.256410256412,4191.282051282053,4212.8205128205145,3974.8717948717963,4178.46153846154,845.0,2042.0,2046.0,0.0,0.0,0.0,0.0,0.0,0.0,0.0,0.0,0.0,0.0,0.0,0.0,0.0,0.0,0.0,0.0,0.0,0.0
90.0,0.0,4175.384615384617,4179.487179487181,4134.3589743589755,4177.94871794872,4168.20512820513,4177.435897435899,3980.0000000000014,4170.256410256412,4171.282051282053,4185.128205128207,4184.615384615386,4188.20512820513,3971.7948717948734,4153.846153846155,807.0,2044.0,2046.0,0.0,0.0,0.0,0.0,0.0,0.0,0.0,0.0,0.0,0.0,0.0,0.0,0.0,0.0,0.0,0.0,0.0,0.0
91.0,0.0,4213.846153846155,4185.128205128207,4174.3589743589755,4191.282051282053,4165.641025641027,4180.512820512822,4005.641025641027,4187.179487179489,4175.897435897437,4188.71794871795,4192.8205128205145,4241.0256410256425,3992.8205128205145,4196.923076923078,825.0,2045.0,2047.0,0.0,0.0,0.0,0.0,0.0,0.0,0.0,0.0,0.0,0.0,0.0,0.0,0.0,0.0,0.0,0.0,0.0,0.0
92.0,0.0,4212.307692307694,4181.538461538463,4178.46153846154,4185.641025641027,4168.71794871795,4181.538461538463,4002.0512820512836,4196.923076923078,4175.384615384617,4187.692307692309,4190.256410256412,4241.538461538463,3989.743589743591,4196.410256410258,839.0,2046.0,2047.0,0.0,0.0,0.0,0.0,0.0,0.0,0.0,0.0,0.0,0.0,0.0,0.0,0.0,0.0,0.0,0.0,0.0,0.0
93.0,0.0,4183.076923076925,4181.538461538463,4142.051282051283,4174.871794871797,4163.589743589745,4175.897435897437,3955.8974358974374,4181.538461538463,4172.307692307694,4183.076923076925,4186.153846153848,4196.923076923078,3981.0256410256425,4159.487179487181,845.0,2045.0,2047.0,0.0,0.0,0.0,0.0,0.0,0.0,0.0,0.0,0.0,0.0,0.0,0.0,0.0,0.0,0.0,0.0,0.0,0.0
94.0,0.0,4228.71794871795,4183.589743589745,4195.384615384617,4189.23076923077,4167.179487179489,4182.051282051283,3972.8205128205145,4201.538461538463,4182.564102564104,4189.743589743592,4194.871794871797,4248.20512820513,3995.8974358974374,4209.23076923077,807.0,2044.0,2046.0,0.0,0.0,0.0,0.0,0.0,0.0,0.0,0.0,0.0,0.0,0.0,0.0,0.0,0.0,0.0,0.0,0.0,0.0
95.0,0.0,4251.282051282053,4180.512820512822,4225.641025641027,4199.487179487181,4168.71794871795,4188.71794871795,4008.2051282051298,4225.641025641027,4184.102564102565,4193.846153846155,4194.871794871797,4293.846153846155,3993.846153846155,4238.97435897436,825.0,2044.0,2046.0,0.0,0.0,0.0,0.0,0.0,0.0,0.0,0.0,0.0,0.0,0.0,0.0,0.0,0.0,0.0,0.0,0.0,0.0
96.0,0.0,4190.256410256412,4184.615384615386,4145.641025641027,4178.46153846154,4167.179487179489,4186.153846153848,3983.589743589745,4197.435897435899,4176.923076923078,4187.692307692309,4194.3589743589755,4223.589743589745,3977.435897435899,4173.333333333335,839.0,2043.0,2048.0,0.0,0.0,0.0,0.0,0.0,0.0,0.0,0.0,0.0,0.0,0.0,0.0,0.0,0.0,0.0,0.0,0.0,0.0
97.0,0.0,4178.97435897436,4195.384615384617,4132.8205128205145,4172.8205128205145,4173.846153846155,4185.641025641027,4009.230769230771,4178.46153846154,4180.000000000002,4189.743589743592,4202.564102564104,4193.333333333335,3992.3076923076937,4166.153846153848,845.0,2041.0,2050.0,0.0,0.0,0.0,0.0,0.0,0.0,0.0,0.0,0.0,0.0,0.0,0.0,0.0,0.0,0.0,0.0,0.0,0.0
98.0,0.0,4216.410256410258,4187.179487179489,4187.179487179489,4192.307692307694,4168.71794871795,4180.000000000002,4042.564102564104,4191.282051282053,4180.000000000002,4192.307692307694,4193.846153846155,4233.333333333335,4012.8205128205145,4203.589743589745,807.0,2042.0,2049.0,0.0,0.0,0.0,0.0,0.0,0.0,0.0,0.0,0.0,0.0,0.0,0.0,0.0,0.0,0.0,0.0,0.0,0.0
99.0,0.0,4214.3589743589755,4170.256410256412,4185.641025641027,4168.20512820513,4168.20512820513,4175.384615384617,3998.46153846154,4190.256410256412,4172.8205128205145,4187.692307692309,4184.102564102565,4248.71794871795,3992.3076923076937,4195.384615384617,825.0,2041.0,2050.0,0.0,0.0,0.0,0.0,0.0,0.0,0.0,0.0,0.0,0.0,0.0,0.0,0.0,0.0,0.0,0.0,0.0,0.0
100.0,0.0,4215.897435897437,4182.564102564104,4181.538461538463,4160.512820512822,4167.692307692309,4181.0256410256425,3994.8717948717963,4195.384615384617,4174.3589743589755,4186.153846153848,4192.307692307694,4266.666666666668,3976.4102564102577,4209.23076923077,839.0,2040.0,2049.0,0.0,0.0,0.0,0.0,0.0,0.0,0.0,0.0,0.0,0.0,0.0,0.0,0.0,0.0,0.0,0.0,0.0,0.0
101.0,0.0,4225.641025641027,4203.589743589745,4194.3589743589755,4217.435897435899,4164.102564102565,4185.641025641027,4012.3076923076937,4200.512820512822,4177.435897435899,4187.692307692309,4189.23076923077,4265.641025641027,4005.641025641027,4220.512820512822,845.0,2040.0,2047.0,0.0,0.0,0.0,0.0,0.0,0.0,0.0,0.0,0.0,0.0,0.0,0.0,0.0,0.0,0.0,0.0,0.0,0.0
102.0,0.0,4206.666666666668,4188.71794871795,4177.94871794872,4204.102564102565,4171.282051282053,4180.512820512822,3977.435897435899,4185.128205128207,4180.000000000002,4191.282051282053,4188.71794871795,4226.666666666668,4021.5384615384633,4182.051282051283,807.0,2037.0,2046.0,0.0,0.0,0.0,0.0,0.0,0.0,0.0,0.0,0.0,0.0,0.0,0.0,0.0,0.0,0.0,0.0,0.0,0.0
103.0,0.0,4210.769230769232,4174.3589743589755,4185.128205128207,4145.128205128207,4168.71794871795,4173.846153846155,3997.9487179487196,4200.512820512822,4181.0256410256425,4190.256410256412,4192.307692307694,4250.256410256412,3991.7948717948734,4191.794871794873,825.0,2037.0,2042.0,0.0,0.0,0.0,0.0,0.0,0.0,0.0,0.0,0.0,0.0,0.0,0.0,0.0,0.0,0.0,0.0,0.0,0.0
104.0,0.0,4224.615384615386,4171.794871794873,4204.615384615386,4165.641025641027,4166.153846153848,4176.923076923078,4047.1794871794887,4225.128205128207,4170.769230769232,4185.641025641027,4171.794871794873,4274.3589743589755,3964.615384615386,4217.94871794872,839.0,2039.0,2039.0,0.0,0.0,0.0,0.0,0.0,0.0,0.0,0.0,0.0,0.0,0.0,0.0,0.0,0.0,0.0,0.0,0.0,0.0
105.0,0.0,4207.692307692309,4157.435897435899,4182.051282051283,4162.564102564104,4168.71794871795,4177.435897435899,4025.1282051282064,4203.076923076925,4171.282051282053,4185.641025641027,4173.333333333335,4225.128205128207,3987.692307692309,4192.307692307694,845.0,2041.0,2037.0,0.0,0.0,0.0,0.0,0.0,0.0,0.0,0.0,0.0,0.0,0.0,0.0,0.0,0.0,0.0,0.0,0.0,0.0
106.0,0.0,4205.641025641027,4169.743589743592,4169.743589743592,4141.0256410256425,4165.641025641027,4171.794871794873,4026.6666666666683,4184.102564102565,4186.666666666668,4190.769230769232,4208.20512820513,4216.923076923078,4022.564102564104,4193.846153846155,807.0,2040.0,2038.0,0.0,0.0,0.0,0.0,0.0,0.0,0.0,0.0,0.0,0.0,0.0,0.0,0.0,0.0,0.0,0.0,0.0,0.0
107.0,0.0,4202.564102564104,4196.410256410258,4165.128205128207,4201.538461538463,4169.743589743592,4175.897435897437,4062.0512820512836,4188.20512820513,4175.897435897437,4186.666666666668,4192.307692307694,4227.692307692309,3984.102564102566,4196.923076923078,825.0,2041.0,2040.0,0.0,0.0,0.0,0.0,0.0,0.0,0.0,0.0,0.0,0.0,0.0,0.0,0.0,0.0,0.0,0.0,0.0,0.0
108.0,0.0,4168.20512820513,4172.8205128205145,4129.23076923077,4215.384615384617,4171.794871794873,4178.46153846154,4050.256410256412,4176.410256410258,4150.769230769232,4177.435897435899,4147.179487179489,4184.615384615386,3928.2051282051298,4149.743589743592,839.0,2042.0,2043.0,0.0,0.0,0.0,0.0,0.0,0.0,0.0,0.0,0.0,0.0,0.0,0.0,0.0,0.0,0.0,0.0,0.0,0.0
109.0,0.0,4159.487179487181,4160.512820512822,4121.538461538463,4169.743589743592,4172.8205128205145,4176.410256410258,4033.846153846155,4165.128205128207,4163.076923076925,4182.564102564104,4168.71794871795,4167.179487179489,3967.692307692309,4147.179487179489,845.0,2042.0,2044.0,0.0,0.0,0.0,0.0,0.0,0.0,0.0,0.0,0.0,0.0,0.0,0.0,0.0,0.0,0.0,0.0,0.0,0.0
110.0,0.0,4197.435897435899,4181.0256410256425,4165.641025641027,4180.512820512822,4171.282051282053,4180.512820512822,4036.4102564102577,4173.846153846155,4184.102564102565,4190.256410256412,4203.076923076925,4211.282051282053,4030.256410256412,4196.410256410258,807.0,2041.0,2044.0,0.0,0.0,0.0,0.0,0.0,0.0,0.0,0.0,0.0,0.0,0.0,0.0,0.0,0.0,0.0,0.0,0.0,0.0
111.0,0.0,4236.410256410258,4157.435897435899,4209.23076923077,4188.71794871795,4163.589743589745,4186.666666666668,4043.0769230769247,4203.589743589745,4180.512820512822,4186.153846153848,4195.384615384617,4272.307692307694,4013.846153846155,4227.692307692309,825.0,2041.0,2043.0,0.0,0.0,0.0,0.0,0.0,0.0,0.0,0.0,0.0,0.0,0.0,0.0,0.0,0.0,0.0,0.0,0.0,0.0
112.0,0.0,4234.871794871797,4142.564102564104,4206.153846153848,4179.487179487181,4168.20512820513,4191.794871794873,4023.0769230769247,4222.051282051283,4189.743589743592,4187.179487179489,4198.46153846154,4285.641025641027,4005.641025641027,4223.076923076925,839.0,2042.0,2042.0,0.0,0.0,0.0,0.0,0.0,0.0,0.0,0.0,0.0,0.0,0.0,0.0,0.0,0.0,0.0,0.0,0.0,0.0
113.0,0.0,4186.666666666668,4170.256410256412,4155.897435897437,4190.769230769232,4170.256410256412,4185.641025641027,3941.5384615384633,4192.8205128205145,4193.846153846155,4190.256410256412,4208.71794871795,4220.000000000002,4038.9743589743603,4181.538461538463,845.0,2042.0,2041.0,0.0,0.0,0.0,0.0,0.0,0.0,0.0,0.0,0.0,0.0,0.0,0.0,0.0,0.0,0.0,0.0,0.0,0.0
114.0,0.0,4164.615384615386,4169.23076923077,4146.153846153848,4177.94871794872,4170.769230769232,4170.256410256412,3901.5384615384633,4172.307692307694,4179.487179487181,4187.692307692309,4202.564102564104,4182.564102564104,4037.9487179487196,4163.589743589745,807.0,2043.0,2042.0,0.0,0.0,0.0,0.0,0.0,0.0,0.0,0.0,0.0,0.0,0.0,0.0,0.0,0.0,0.0,0.0,0.0,0.0
115.0,0.0,4190.256410256412,4147.692307692309,4183.076923076925,4155.897435897437,4170.769230769232,4167.692307692309,3965.641025641027,4205.641025641027,4182.051282051283,4191.282051282053,4202.051282051283,4227.179487179489,4016.9230769230785,4189.743589743592,825.0,2044.0,2043.0,0.0,0.0,0.0,0.0,0.0,0.0,0.0,0.0,0.0,0.0,0.0,0.0,0.0,0.0,0.0,0.0,0.0,0.0
116.0,0.0,4195.897435897437,4155.897435897437,4174.3589743589755,4164.102564102565,4163.589743589745,4173.333333333335,3999.487179487181,4218.97435897436,4192.8205128205145,4194.3589743589755,4209.743589743592,4241.0256410256425,4024.615384615386,4191.282051282053,839.0,2044.0,2043.0,0.0,0.0,0.0,0.0,0.0,0.0,0.0,0.0,0.0,0.0,0.0,0.0,0.0,0.0,0.0,0.0,0.0,0.0
117.0,0.0,4193.333333333335,4169.743589743592,4162.051282051283,4171.794871794873,4168.71794871795,4172.8205128205145,3986.1538461538476,4196.923076923078,4194.871794871797,4190.256410256412,4212.307692307694,4226.153846153848,4040.0000000000014,4184.615384615386,845.0,2046.0,2043.0,0.0,0.0,0.0,0.0,0.0,0.0,0.0,0.0,0.0,0.0,0.0,0.0,0.0,0.0,0.0,0.0,0.0,0.0
118.0,0.0,4193.333333333335,4153.846153846155,4172.8205128205145,4163.076923076925,4168.20512820513,4164.615384615386,4009.743589743591,4192.307692307694,4185.128205128207,4188.20512820513,4204.102564102565,4228.20512820513,4031.7948717948734,4187.179487179489,807.0,2048.0,2037.0,0.0,0.0,0.0,0.0,0.0,0.0,0.0,0.0,0.0,0.0,0.0,0.0,0.0,0.0,0.0,0.0,0.0,0.0
119.0,0.0,4183.076923076925,4147.179487179489,4172.8205128205145,4157.435897435899,4168.71794871795,4168.71794871795,4039.487179487181,4191.282051282053,4176.410256410258,4188.71794871795,4197.435897435899,4222.051282051283,4021.5384615384633,4183.076923076925,825.0,2048.0,2032.0,0.0,0.0,0.0,0.0,0.0,0.0,0.0,0.0,0.0,0.0,0.0,0.0,0.0,0.0,0.0,0.0,0.0,0.0
120.0,0.0,4188.20512820513,4161.538461538463,4177.94871794872,4160.000000000002,4175.897435897437,4176.410256410258,4029.743589743591,4182.564102564104,4178.97435897436,4189.743589743592,4200.000000000002,4222.051282051283,4028.71794871795,4187.179487179489,839.0,2048.0,2021.0,0.0,0.0,0.0,0.0,0.0,0.0,0.0,0.0,0.0,0.0,0.0,0.0,0.0,0.0,0.0,0.0,0.0,0.0
121.0,0.0,4195.897435897437,4167.692307692309,4177.94871794872,4168.20512820513,4168.71794871795,4172.8205128205145,4006.6666666666683,4183.076923076925,4184.615384615386,4191.282051282053,4202.564102564104,4232.307692307694,4042.0512820512836,4188.20512820513,845.0,2045.0,2018.0,0.0,0.0,0.0,0.0,0.0,0.0,0.0,0.0,0.0,0.0,0.0,0.0,0.0,0.0,0.0,0.0,0.0,0.0
122.0,0.0,4181.538461538463,4155.384615384617,4167.179487179489,4155.897435897437,4168.71794871795,4174.3589743589755,4027.1794871794887,4189.743589743592,4180.512820512822,4188.71794871795,4195.897435897437,4225.128205128207,4030.7692307692323,4176.923076923078,807.0,2042.0,2022.0,0.0,0.0,0.0,0.0,0.0,0.0,0.0,0.0,0.0,0.0,0.0,0.0,0.0,0.0,0.0,0.0,0.0,0.0
123.0,0.0,4151.794871794873,4136.410256410258,4143.589743589745,4124.615384615386,4170.256410256412,4175.384615384617,4063.0769230769247,4181.538461538463,4162.564102564104,4180.000000000002,4178.97435897436,4190.256410256412,3994.358974358976,4148.71794871795,825.0,2040.0,2031.0,0.0,0.0,0.0,0.0,0.0,0.0,0.0,0.0,0.0,0.0,0.0,0.0,0.0,0.0,0.0,0.0,0.0,0.0
124.0,0.0,4158.97435897436,4141.0256410256425,4155.897435897437,4145.641025641027,4169.23076923077,4178.97435897436,4058.9743589743603,4178.97435897436,4160.512820512822,4181.538461538463,4173.333333333335,4192.307692307694,3987.692307692309,4149.23076923077,839.0,2042.0,2037.0,0.0,0.0,0.0,0.0,0.0,0.0,0.0,0.0,0.0,0.0,0.0,0.0,0.0,0.0,0.0,0.0,0.0,0.0
125.0,0.0,4192.8205128205145,4152.8205128205145,4198.97435897436,4173.846153846155,4174.3589743589755,4187.179487179489,4056.4102564102577,4198.46153846154,4176.923076923078,4188.71794871795,4184.615384615386,4241.0256410256425,4011.2820512820526,4189.23076923077,845.0,2041.0,2045.0,0.0,0.0,0.0,0.0,0.0,0.0,0.0,0.0,0.0,0.0,0.0,0.0,0.0,0.0,0.0,0.0,0.0,0.0
126.0,0.0,4172.8205128205145,4162.051282051283,4156.410256410258,4159.487179487181,4168.20512820513,4184.615384615386,4069.230769230771,4205.128205128207,4181.538461538463,4186.153846153848,4193.333333333335,4222.564102564104,4026.1538461538476,4179.487179487181,807.0,2042.0,2048.0,0.0,0.0,0.0,0.0,0.0,0.0,0.0,0.0,0.0,0.0,0.0,0.0,0.0,0.0,0.0,0.0,0.0,0.0
127.0,0.0,4151.794871794873,4172.8205128205145,4099.487179487181,4146.153846153848,4163.589743589745,4183.589743589745,4052.8205128205145,4197.94871794872,4187.179487179489,4186.666666666668,4204.102564102565,4180.000000000002,4041.5384615384633,4155.897435897437,825.0,2041.0,2048.0,0.0,0.0,0.0,0.0,0.0,0.0,0.0,0.0,0.0,0.0,0.0,0.0,0.0,0.0,0.0,0.0,0.0,0.0
128.0,0.0,4196.923076923078,4169.23076923077,4166.153846153848,4162.051282051283,4166.153846153848,4188.71794871795,4060.0000000000014,4218.97435897436,4202.051282051283,4192.8205128205145,4214.871794871797,4233.846153846155,4064.615384615386,4190.256410256412,839.0,2041.0,2051.0,0.0,0.0,0.0,0.0,4.0,0.0,0.0,0.0,0.0,0.0,0.0,0.0,0.0,0.0,0.0,0.0,4.0,4.0
0.0,0.0,4203.076923076925,4167.692307692309,4223.589743589745,4157.435897435899,4173.846153846155,4181.538461538463,4103.076923076925,4227.692307692309,4190.256410256412,4185.128205128207,4199.487179487181,4264.615384615386,4057.9487179487196,4196.923076923078,796.0,2041.0,2057.0,0.0,0.0,0.0,0.0,4.0,0.0,0.0,0.0,0.0,0.0,0.0,0.0,0.0,0.0,0.0,0.0,4.0,4.0
1.0,0.0,4157.435897435899,4175.384615384617,4176.410256410258,4148.71794871795,4180.512820512822,4172.8205128205145,4105.641025641027,4198.97435897436,4175.897435897437,4179.487179487181,4195.384615384617,4203.076923076925,4050.256410256412,4164.102564102565,834.0,2043.0,2061.0,0.0,0.0,0.0,0.0,4.0,4.0,0.0,0.0,0.0,0.0,0.0,0.0,0.0,0.0,0.0,0.0,4.0,4.0
2.0,0.0,4184.102564102565,4170.769230769232,4169.23076923077,4164.615384615386,4167.692307692309,4180.512820512822,4067.1794871794887,4204.615384615386,4195.384615384617,4189.23076923077,4216.410256410258,4225.128205128207,4070.256410256412,4194.871794871797,830.0,2044.0,2066.0,0.0,0.0,4.0,0.0,4.0,4.0,0.0,0.0,0.0,0.0,0.0,0.0,0.0,0.0,0.0,0.0,4.0,4.0
3.0,0.0,4235.897435897437,4171.282051282053,4209.743589743592,4165.641025641027,4163.076923076925,4190.256410256412,4035.384615384617,4237.435897435899,4213.846153846155,4194.871794871797,4218.46153846154,4307.179487179489,4070.256410256412,4247.179487179489,840.0,2044.0,2065.0,0.0,0.0,4.0,4.0,4.0,4.0,0.0,0.0,0.0,0.0,0.0,0.0,0.0,0.0,0.0,0.0,4.0,4.0
4.0,0.0,4206.666666666668,4202.051282051283,4176.923076923078,4172.307692307694,4167.692307692309,4182.564102564104,4015.8974358974374,4225.641025641027,4202.564102564104,4191.794871794873,4209.743589743592,4268.71794871795,4068.71794871795,4218.46153846154,0.0,2044.0,2054.0,0.0,0.0,4.0,4.0,4.0,4.0,0.0,0.0,0.0,0.0,0.0,0.0,0.0,0.0,0.0,0.0,4.0,4.0
5.0,0.0,4178.46153846154,4192.307692307694,4158.46153846154,4169.23076923077,4170.769230769232,4178.46153846154,4021.0256410256425,4202.051282051283,4179.487179487181,4186.153846153848,4203.589743589745,4213.333333333335,4076.4102564102577,4185.641025641027,630.0,2044.0,2046.0,0.0,0.0,4.0,4.0,4.0,4.0,0.0,4.0,0.0,0.0,0.0,0.0,0.0,0.0,0.0,0.0,4.0,4.0
6.0,0.0,4209.743589743592,4161.538461538463,4210.256410256412,4145.641025641027,4175.897435897437,4191.794871794873,4084.102564102566,4217.94871794872,4178.97435897436,4185.641025641027,4202.564102564104,4263.076923076925,4057.9487179487196,4215.384615384617,794.0,2044.0,2037.0,0.0,0.0,4.0,4.0,4.0,4.0,0.0,4.0,4.0,0.0,0.0,0.0,0.0,0.0,0.0,0.0,4.0,4.0
7.0,0.0,4205.641025641027,4183.076923076925,4192.8205128205145,4148.71794871795,4170.769230769232,4190.769230769232,4128.71794871795,4216.923076923078,4192.307692307694,4190.256410256412,4209.743589743592,4271.794871794873,4051.7948717948734,4218.46153846154,850.0,2042.0,2021.0,0.0,0.0,4.0,4.0,4.0,4.0,0.0,4.0,4.0,4.0,0.0,0.0,0.0,0.0,0.0,0.0,4.0,4.0
8.0,0.0,4182.051282051283,4182.564102564104,4147.179487179489,4174.871794871797,4170.256410256412,4181.538461538463,4092.3076923076937,4191.794871794873,4194.3589743589755,4191.794871794873,4213.333333333335,4213.846153846155,4090.7692307692323,4188.20512820513,766.0,2043.0,2016.0,0.0,0.0,4.0,4.0,4.0,4.0,0.0,4.0,4.0,4.0,4.0,0.0,0.0,0.0,0.0,0.0,4.0,4.0
9.0,0.0,4196.923076923078,4151.794871794873,4164.102564102565,4188.20512820513,4171.794871794873,4187.692307692309,4070.7692307692323,4191.794871794873,4189.743589743592,4190.256410256412,4209.743589743592,4214.3589743589755,4110.256410256412,4196.410256410258,179.0,2042.0,2024.0,0.0,0.0,4.0,4.0,4.0,4.0,0.0,4.0,4.0,4.0,4.0,2.0,0.0,0.0,0.0,0.0,4.0,4.0
10.0,0.0,4203.589743589745,4175.384615384617,4178.46153846154,4192.307692307694,4167.692307692309,4200.512820512822,4131.794871794873,4200.000000000002,4196.923076923078,4190.769230769232,4220.000000000002,4244.102564102565,4087.692307692309,4216.410256410258,860.0,2042.0,2032.0,0.0,0.0,4.0,4.0,4.0,4.0,0.0,4.0,4.0,4.0,4.0,2.0,0.0,0.0,4.0,0.0,4.0,4.0
11.0,0.0,4186.666666666668,4217.435897435899,4162.564102564104,4197.94871794872,4174.871794871797,4210.256410256412,4183.076923076925,4191.282051282053,4207.179487179489,4195.897435897437,4228.71794871795,4228.71794871795,4074.8717948717963,4204.102564102565,814.0,2044.0,2047.0,0.0,0.0,4.0,4.0,4.0,4.0,0.0,4.0,4.0,4.0,4.0,2.0,0.0,0.0,4.0,4.0,4.0,4.0
12.0,0.0,4163.076923076925,4199.487179487181,4130.256410256412,4183.589743589745,4173.846153846155,4213.333333333335,4165.128205128207,4181.0256410256425,4195.384615384617,4193.333333333335,4211.794871794873,4188.20512820513,4066.6666666666683,4173.846153846155,842.0,2044.0,2050.0,0.0,0.0,4.0,4.0,4.0,4.0,0.0,4.0,4.0,4.0,4.0,2.0,4.0,0.0,4.0,4.0,4.0,4.0
13.0,0.0,4156.410256410258,4173.333333333335,4116.923076923078,4171.282051282053,4172.8205128205145,4222.564102564104,4161.0256410256425,4173.846153846155,4189.23076923077,4190.256410256412,4213.846153846155,4173.846153846155,4056.9230769230785,4166.153846153848,834.0,2046.0,2048.0,0.0,0.0,4.0,4.0,4.0,4.0,0.0,4.0,4.0,4.0,4.0,2.0,4.0,4.0,4.0,4.0,4.0,4.0
14.0,0.0,4216.410256410258,4178.46153846154,4187.179487179489,4139.487179487181,4175.384615384617,4238.46153846154,4189.23076923077,4202.564102564104,4207.179487179489,4192.8205128205145,4229.743589743592,4252.8205128205145,4065.1282051282064,4214.871794871797,860.0,2046.0,2047.0,0.0,0.0,4.0,4.0,4.0,4.0,0.0,4.0,4.0,4.0,4.0,2.0,4.0,4.0,4.0,4.0,4.0,4.0
15.0,0.0,4267.692307692309,4191.282051282053,4241.0256410256425,4112.307692307694,4166.666666666668,4241.538461538463,4179.487179487181,4252.8205128205145,4219.487179487181,4195.897435897437,4227.692307692309,4322.564102564104,4078.9743589743603,4245.641025641027,814.0,2046.0,2039.0,0.0,0.0,4.0,4.0,4.0,4.0,0.0,4.0,4.0,4.0,4.0,2.0,4.0,4.0,4.0,4.0,4.0,4.0
16.0,0.0,4214.871794871797,4215.897435897437,4180.000000000002,4158.97435897436,4170.256410256412,4235.897435897437,4119.487179487181,4232.8205128205145,4211.282051282053,4195.897435897437,4228.71794871795,4250.769230769232,4074.8717948717963,4196.410256410258,0.0,2045.0,2038.0,0.0,0.0,4.0,4.0,4.0,4.0,0.0,4.0,4.0,4.0,4.0,2.0,4.0,4.0,4.0,4.0,4.0,4.0
17.0,0.0,4164.102564102565,4218.97435897436,4132.8205128205145,4206.153846153848,4176.410256410258,4231.794871794873,4052.3076923076937,4175.897435897437,4197.94871794872,4193.333333333335,4233.846153846155,4173.846153846155,4061.5384615384633,4155.384615384617,0.0,2045.0,2039.0,0.0,0.0,4.0,4.0,4.0,4.0,0.0,4.0,4.0,4.0,4.0,2.0,4.0,4.0,4.0,4.0,4.0,4.0
18.0,0.0,4203.589743589745,4196.923076923078,4175.897435897437,4184.615384615386,4174.3589743589755,4229.743589743592,4030.256410256412,4181.0256410256425,4195.897435897437,4190.769230769232,4225.641025641027,4215.897435897437,4056.9230769230785,4182.051282051283,0.0,2045.0,2041.0,0.0,0.0,4.0,4.0,4.0,4.0,0.0,4.0,4.0,4.0,4.0,2.0,4.0,4.0,4.0,4.0,4.0,4.0
19.0,0.0,4226.153846153848,4195.897435897437,4183.076923076925,4156.410256410258,4169.23076923077,4230.769230769232,4045.1282051282064,4207.179487179489,4197.94871794872,4189.743589743592,4216.923076923078,4249.23076923077,4061.0256410256425,4201.538461538463,0.0,2046.0,2043.0,0.0,0.0,4.0,4.0,4.0,4.0,0.0,4.0,4.0,4.0,4.0,2.0,4.0,4.0,4.0,4.0,4.0,4.0
20.0,0.0,4203.589743589745,4203.589743589745,4147.692307692309,4169.23076923077,4164.102564102565,4241.0256410256425,4089.743589743591,4201.538461538463,4206.666666666668,4191.794871794873,4232.8205128205145,4221.538461538463,4068.71794871795,4196.923076923078,0.0,2045.0,2045.0,0.0,0.0,4.0,4.0,4.0,4.0,0.0,4.0,4.0,4.0,4.0,2.0,4.0,4.0,4.0,4.0,4.0,4.0
21.0,0.0,4211.794871794873,4204.615384615386,4167.692307692309,4198.46153846154,4173.333333333335,4248.20512820513,4161.538461538463,4197.435897435899,4215.384615384617,4198.97435897436,4249.23076923077,4229.743589743592,4074.8717948717963,4211.282051282053,0.0,2046.0,2043.0,0.0,0.0,4.0,4.0,4.0,4.0,0.0,4.0,4.0,4.0,4.0,2.0,4.0,4.0,4.0,4.0,4.0,4.0
22.0,0.0,4233.846153846155,4208.71794871795,4206.666666666668,4202.051282051283,4173.333333333335,4233.333333333335,4206.666666666668,4210.769230769232,4211.282051282053,4197.94871794872,4240.000000000002,4262.564102564104,4073.333333333335,4220.000000000002,0.0,2046.0,2043.0,0.0,0.0,4.0,4.0,4.0,4.0,0.0,4.0,4.0,4.0,4.0,2.0,4.0,4.0,4.0,4.0,4.0,4.0
23.0,0.0,4230.769230769232,4202.564102564104,4207.692307692309,4177.435897435899,4169.743589743592,4225.641025641027,4217.94871794872,4217.435897435899,4212.307692307694,4191.794871794873,4236.410256410258,4257.435897435899,4058.9743589743603,4213.846153846155,0.0,2046.0,2044.0,0.0,0.0,4.0,4.0,4.0,4.0,0.0,4.0,4.0,4.0,4.0,2.0,4.0,4.0,4.0,4.0,4.0,4.0
24.0,0.0,4204.615384615386,4180.512820512822,4175.384615384617,4167.179487179489,4174.871794871797,4232.8205128205145,4206.153846153848,4208.71794871795,4216.410256410258,4193.333333333335,4247.692307692309,4218.97435897436,4045.1282051282064,4198.46153846154,0.0,2047.0,2049.0,0.0,0.0,4.0,4.0,4.0,4.0,0.0,4.0,4.0,4.0,4.0,2.0,4.0,4.0,4.0,4.0,4.0,4.0
25.0,0.0,4185.641025641027,4174.871794871797,4146.153846153848,4170.769230769232,4168.20512820513,4225.128205128207,4141.538461538463,4187.692307692309,4205.641025641027,4196.923076923078,4242.564102564104,4200.512820512822,4055.8974358974374,4180.512820512822,0.0,2048.0,2051.0,0.0,0.0,4.0,4.0,4.0,4.0,0.0,4.0,4.0,4.0,4.0,2.0,4.0,4.0,4.0,4.0,4.0,4.0
26.0,0.0,4194.3589743589755,4182.564102564104,4155.384615384617,4163.589743589745,4168.20512820513,4214.3589743589755,4093.333333333335,4185.641025641027,4201.0256410256425,4196.410256410258,4226.666666666668,4221.0256410256425,4061.0256410256425,4184.615384615386,0.0,2047.0,2051.0,0.0,0.0,4.0,4.0,4.0,4.0,0.0,4.0,4.0,4.0,4.0,2.0,4.0,4.0,4.0,4.0,4.0,4.0
27.0,0.0,4191.794871794873,4171.794871794873,4153.846153846155,4161.538461538463,4172.307692307694,4213.846153846155,4124.615384615386,4193.846153846155,4202.051282051283,4190.769230769232,4222.051282051283,4217.435897435899,4039.487179487181,4181.538461538463,0.0,2047.0,2052.0,0.0,0.0,4.0,4.0,4.0,4.0,0.0,4.0,4.0,4.0,4.0,2.0,4.0,4.0,4.0,4.0,4.0,4.0
28.0,0.0,4185.641025641027,4165.128205128207,4150.256410256412,4165.128205128207,4172.8205128205145,4216.410256410258,4143.076923076925,4191.794871794873,4197.435897435899,4188.20512820513,4224.615384615386,4208.71794871795,4033.846153846155,4176.923076923078,0.0,2046.0,2054.0,0.0,0.0,4.0,4.0,4.0,4.0,0.0,4.0,4.0,4.0,4.0,2.0,4.0,4.0,4.0,4.0,4.0,4.0
29.0,0.0,4187.692307692309,4172.8205128205145,4159.487179487181,4157.435897435899,4175.384615384617,4217.94871794872,4114.3589743589755,4187.692307692309,4196.410256410258,4193.333333333335,4226.153846153848,4216.923076923078,4043.589743589745,4181.538461538463,0.0,2043.0,2056.0,0.0,0.0,4.0,4.0,4.0,4.0,0.0,4.0,4.0,4.0,4.0,2.0,4.0,4.0,4.0,4.0,4.0,4.0
30.0,0.0,4172.307692307694,4166.153846153848,4133.333333333335,4168.20512820513,4169.743589743592,4208.20512820513,4126.666666666668,4178.97435897436,4194.871794871797,4194.871794871797,4218.97435897436,4196.410256410258,4037.9487179487196,4171.282051282053,0.0,2042.0,2059.0,0.0,0.0,4.0,4.0,4.0,4.0,0.0,4.0,4.0,4.0,4.0,2.0,4.0,4.0,4.0,4.0,4.0,4.0
31.0,0.0,4181.0256410256425,4144.102564102565,4142.051282051283,4169.23076923077,4171.794871794873,4205.641025641027,4153.333333333335,4187.179487179489,4186.153846153848,4190.256410256412,4206.153846153848,4206.153846153848,4027.1794871794887,4180.512820512822,0.0,2042.0,2058.0,0.0,0.0,4.0,4.0,4.0,4.0,0.0,4.0,4.0,4.0,4.0,2.0,4.0,4.0,4.0,4.0,4.0,4.0
32.0,0.0,4207.179487179489,4140.512820512822,4189.743589743592,4152.307692307694,4171.282051282053,4211.794871794873,4117.435897435899,4203.589743589745,4184.102564102565,4187.692307692309,4204.615384615386,4246.153846153848,4023.589743589745,4203.589743589745,0.0,2041.0,2057.0,0.0,0.0,4.0,4.0,4.0,4.0,0.0,4.0,4.0,4.0,4.0,2.0,4.0,4.0,4.0,4.0,4.0,4.0
33.0,0.0,4188.71794871795,4173.333333333335,4165.128205128207,4169.23076923077,4168.20512820513,4210.256410256412,4138.46153846154,4185.128205128207,4194.3589743589755,4189.23076923077,4222.051282051283,4217.435897435899,4052.3076923076937,4184.615384615386,0.0,2041.0,2056.0,0.0,0.0,4.0,4.0,4.0,4.0,0.0,4.0,4.0,4.0,4.0,2.0,4.0,4.0,4.0,4.0,4.0,4.0
34.0,0.0,4172.307692307694,4194.3589743589755,4125.128205128207,4192.307692307694,4172.307692307694,4199.487179487181,4269.23076923077,4162.564102564104,4200.512820512822,4192.8205128205145,4231.794871794873,4176.923076923078,4084.615384615386,4164.615384615386,0.0,2041.0,2052.0,0.0,0.0,4.0,4.0,4.0,4.0,0.0,4.0,4.0,4.0,4.0,2.0,4.0,4.0,4.0,4.0,4.0,4.0
35.0,0.0,4187.179487179489,4170.769230769232,4153.333333333335,4176.410256410258,4167.692307692309,4195.384615384617,4354.3589743589755,4181.0256410256425,4191.282051282053,4193.333333333335,4212.307692307694,4211.794871794873,4052.8205128205145,4184.615384615386,0.0,2044.0,2046.0,0.0,0.0,4.0,4.0,4.0,4.0,0.0,4.0,4.0,4.0,4.0,2.0,4.0,4.0,4.0,4.0,4.0,4.0
36.0,0.0,4191.794871794873,4150.769230769232,4187.179487179489,4163.076923076925,4170.769230769232,4204.615384615386,4362.564102564104,4197.435897435899,4183.076923076925,4192.307692307694,4200.512820512822,4239.487179487181,4029.743589743591,4201.0256410256425,0.0,2045.0,2044.0,0.0,0.0,4.0,4.0,4.0,4.0,0.0,4.0,4.0,4.0,4.0,2.0,4.0,4.0,4.0,4.0,4.0,4.0
37.0,0.0,4183.076923076925,4163.076923076925,4167.179487179489,4180.000000000002,4173.333333333335,4206.153846153848,4346.666666666668,4176.410256410258,4189.23076923077,4190.256410256412,4216.923076923078,4209.743589743592,4081.0256410256425,4191.282051282053,0.0,2046.0,2044.0,0.0,0.0,4.0,4.0,4.0,4.0,0.0,4.0,4.0,4.0,4.0,2.0,4.0,4.0,4.0,4.0,4.0,4.0
38.0,0.0,4186.153846153848,4168.20512820513,4143.589743589745,4191.794871794873,4166.153846153848,4199.487179487181,4304.102564102565,4171.282051282053,4189.743589743592,4190.256410256412,4220.000000000002,4201.538461538463,4098.46153846154,4192.307692307694,0.0,2047.0,2042.0,0.0,0.0,4.0,4.0,4.0,4.0,0.0,4.0,4.0,4.0,4.0,2.0,4.0,4.0,4.0,4.0,4.0,4.0
39.0,0.0,4199.487179487181,4168.71794871795,4165.641025641027,4180.000000000002,4170.256410256412,4202.051282051283,4293.333333333335,4197.435897435899,4194.871794871797,4194.871794871797,4215.384615384617,4227.692307692309,4069.230769230771,4206.666666666668,0.0,2048.0,2042.0,0.0,0.0,4.0,4.0,4.0,4.0,0.0,4.0,4.0,4.0,4.0,2.0,4.0,4.0,4.0,4.0,4.0,4.0
40.0,0.0,4195.897435897437,4168.71794871795,4188.20512820513,4159.487179487181,4171.282051282053,4207.179487179489,4329.743589743592,4206.153846153848,4204.102564102565,4196.923076923078,4222.051282051283,4224.615384615386,4073.846153846155,4196.410256410258,0.0,2048.0,2041.0,0.0,0.0,4.0,4.0,4.0,4.0,0.0,4.0,4.0,4.0,4.0,2.0,4.0,4.0,4.0,4.0,4.0,4.0
41.0,0.0,4164.102564102565,4171.794871794873,4154.3589743589755,4167.692307692309,4174.871794871797,4208.71794871795,4313.333333333335,4176.923076923078,4200.512820512822,4191.794871794873,4224.615384615386,4182.051282051283,4083.589743589745,4167.692307692309,0.0,2049.0,2040.0,0.0,0.0,4.0,4.0,4.0,4.0,0.0,4.0,4.0,4.0,4.0,2.0,4.0,4.0,4.0,4.0,4.0,4.0
42.0,0.0,4162.051282051283,4189.23076923077,4128.71794871795,4205.641025641027,4177.435897435899,4208.71794871795,4295.384615384617,4158.46153846154,4195.897435897437,4191.794871794873,4227.692307692309,4177.435897435899,4086.6666666666683,4180.512820512822,0.0,2052.0,2042.0,0.0,0.0,4.0,4.0,4.0,4.0,0.0,4.0,4.0,4.0,4.0,2.0,4.0,4.0,4.0,4.0,4.0,4.0
43.0,0.0,4210.256410256412,4183.589743589745,4183.589743589745,4201.0256410256425,4170.256410256412,4206.666666666668,4377.94871794872,4184.615384615386,4201.0256410256425,4198.46153846154,4224.615384615386,4237.435897435899,4096.410256410258,4223.076923076925,0.0,2052.0,2041.0,0.0,0.0,4.0,4.0,4.0,4.0,0.0,4.0,4.0,4.0,4.0,2.0,4.0,4.0,4.0,4.0,4.0,4.0
44.0,0.0,4217.435897435899,4173.333333333335,4208.71794871795,4168.20512820513,4175.897435897437,4209.23076923077,4448.20512820513,4198.46153846154,4205.128205128207,4197.435897435899,4213.333333333335,4251.282051282053,4094.358974358976,4222.051282051283,0.0,2049.0,2041.0,0.0,0.0,4.0,4.0,4.0,4.0,0.0,4.0,4.0,4.0,4.0,2.0,4.0,4.0,4.0,4.0,4.0,4.0
45.0,0.0,4176.410256410258,4188.20512820513,4154.3589743589755,4168.20512820513,4177.435897435899,4205.128205128207,4427.692307692309,4184.615384615386,4204.615384615386,4191.794871794873,4220.000000000002,4204.615384615386,4095.384615384617,4188.71794871795,0.0,2049.0,2043.0,0.0,0.0,4.0,4.0,4.0,4.0,0.0,4.0,4.0,4.0,4.0,2.0,4.0,4.0,4.0,4.0,4.0,4.0
46.0,0.0,4167.179487179489,4197.435897435899,4138.46153846154,4187.179487179489,4174.3589743589755,4197.94871794872,4410.769230769232,4182.051282051283,4210.769230769232,4196.923076923078,4240.512820512822,4189.743589743592,4104.615384615386,4181.0256410256425,0.0,2048.0,2042.0,0.0,0.0,4.0,4.0,4.0,4.0,0.0,4.0,4.0,4.0,4.0,2.0,4.0,4.0,4.0,4.0,4.0,4.0
47.0,0.0,4188.71794871795,4194.871794871797,4170.256410256412,4197.94871794872,4174.871794871797,4204.615384615386,4433.333333333335,4185.128205128207,4212.307692307694,4200.000000000002,4235.897435897437,4218.97435897436,4111.794871794873,4197.94871794872,0.0,2047.0,2041.0,0.0,0.0,4.0,4.0,4.0,4.0,0.0,4.0,4.0,4.0,4.0,2.0,4.0,4.0,4.0,4.0,4.0,4.0
48.0,0.0,4201.0256410256425,4194.871794871797,4178.97435897436,4197.94871794872,4172.8205128205145,4211.282051282053,4445.641025641027,4190.769230769232,4204.615384615386,4193.846153846155,4223.076923076925,4233.846153846155,4115.897435897437,4214.3589743589755,0.0,2045.0,2040.0,0.0,0.0,4.0,4.0,4.0,4.0,0.0,4.0,4.0,4.0,4.0,2.0,4.0,4.0,4.0,4.0,4.0,4.0
49.0,0.0,4202.051282051283,4192.8205128205145,4181.0256410256425,4190.769230769232,4176.410256410258,4201.0256410256425,4440.512820512822,4197.94871794872,4203.589743589745,4193.846153846155,4224.615384615386,4229.743589743592,4100.000000000002,4220.512820512822,0.0,2043.0,2035.0,0.0,0.0,4.0,4.0,4.0,4.0,0.0,4.0,4.0,4.0,4.0,2.0,4.0,4.0,4.0,4.0,4.0,4.0
50.0,0.0,4194.3589743589755,4193.846153846155,4176.923076923078,4166.666666666668,4172.307692307694,4186.153846153848,4427.179487179488,4186.153846153848,4199.487179487181,4195.897435897437,4217.435897435899,4222.564102564104,4089.743589743591,4205.641025641027,0.0,2043.0,2035.0,0.0,0.0,4.0,4.0,4.0,4.0,0.0,4.0,4.0,4.0,4.0,2.0,4.0,4.0,4.0,4.0,4.0,4.0
51.0,0.0,4191.282051282053,4195.384615384617,4172.307692307694,4142.051282051283,4172.307692307694,4186.153846153848,4400.000000000002,4175.897435897437,4196.410256410258,4193.333333333335,4220.512820512822,4227.692307692309,4114.871794871797,4200.512820512822,0.0,2040.0,2028.0,0.0,0.0,4.0,4.0,4.0,4.0,0.0,4.0,4.0,4.0,4.0,2.0,4.0,4.0,4.0,4.0,4.0,4.0
52.0,0.0,4191.794871794873,4176.923076923078,4175.384615384617,4159.487179487181,4176.923076923078,4185.641025641027,4368.20512820513,4184.615384615386,4201.538461538463,4192.8205128205145,4229.23076923077,4234.871794871797,4121.0256410256425,4207.692307692309,0.0,2037.0,2024.0,0.0,0.0,4.0,4.0,4.0,4.0,0.0,4.0,4.0,4.0,4.0,2.0,4.0,4.0,4.0,4.0,4.0,4.0
53.0,0.0,4176.923076923078,4181.0256410256425,4153.846153846155,4196.410256410258,4170.256410256412,4176.923076923078,4358.46153846154,4183.076923076925,4203.589743589745,4196.923076923078,4223.076923076925,4210.769230769232,4102.564102564104,4192.8205128205145,0.0,2035.0,2023.0,0.0,0.0,4.0,4.0,4.0,4.0,0.0,4.0,4.0,4.0,4.0,2.0,4.0,4.0,4.0,4.0,4.0,4.0
54.0,0.0,4188.71794871795,4215.384615384617,4160.512820512822,4201.538461538463,4175.897435897437,4184.615384615386,4394.871794871797,4183.589743589745,4212.8205128205145,4204.615384615386,4236.410256410258,4213.846153846155,4122.051282051283,4205.641025641027,0.0,2031.0,2023.0,0.0,0.0,4.0,4.0,4.0,4.0,0.0,4.0,4.0,4.0,4.0,2.0,4.0,4.0,4.0,4.0,4.0,4.0
55.0,0.0,4208.20512820513,4208.71794871795,4188.71794871795,4179.487179487181,4174.871794871797,4192.307692307694,4434.3589743589755,4193.333333333335,4216.923076923078,4201.0256410256425,4242.051282051283,4250.256410256412,4129.743589743592,4230.256410256412,0.0,2029.0,2023.0,0.0,0.0,4.0,4.0,4.0,4.0,0.0,4.0,4.0,4.0,4.0,2.0,4.0,4.0,4.0,4.0,4.0,4.0
56.0,0.0,4185.128205128207,4184.615384615386,4168.71794871795,4170.256410256412,4169.23076923077,4187.692307692309,4439.487179487181,4184.102564102565,4204.102564102565,4191.282051282053,4214.871794871797,4227.692307692309,4099.487179487181,4201.538461538463,0.0,2027.0,2023.0,0.0,0.0,4.0,4.0,4.0,4.0,0.0,4.0,4.0,4.0,4.0,2.0,4.0,4.0,4.0,4.0,4.0,4.0
57.0,0.0,4172.307692307694,4192.8205128205145,4147.179487179489,4177.94871794872,4175.384615384617,4187.692307692309,4448.20512820513,4178.46153846154,4197.94871794872,4194.871794871797,4211.282051282053,4195.897435897437,4098.97435897436,4171.282051282053,0.0,2024.0,2028.0,0.0,0.0,4.0,4.0,4.0,4.0,0.0,4.0,4.0,4.0,4.0,2.0,4.0,4.0,4.0,4.0,4.0,4.0
58.0,0.0,4192.307692307694,4201.0256410256425,4166.153846153848,4185.128205128207,4172.8205128205145,4186.666666666668,4452.307692307694,4191.282051282053,4193.846153846155,4195.384615384617,4213.846153846155,4227.692307692309,4105.641025641027,4195.897435897437,0.0,2024.0,2029.0,0.0,0.0,4.0,4.0,4.0,4.0,0.0,4.0,4.0,4.0,4.0,2.0,4.0,4.0,4.0,4.0,4.0,4.0
59.0,0.0,4199.487179487181,4196.923076923078,4181.0256410256425,4178.46153846154,4173.333333333335,4185.128205128207,4447.692307692309,4186.666666666668,4180.512820512822,4188.71794871795,4196.410256410258,4253.333333333335,4089.743589743591,4225.641025641027,0.0,2024.0,2029.0,0.0,0.0,4.0,4.0,4.0,4.0,0.0,4.0,4.0,4.0,4.0,2.0,4.0,4.0,4.0,4.0,4.0,4.0
60.0,0.0,4181.0256410256425,4189.743589743592,4152.8205128205145,4168.20512820513,4174.871794871797,4182.051282051283,4446.666666666668,4177.94871794872,4181.0256410256425,4189.743589743592,4197.94871794872,4219.487179487181,4096.923076923078,4208.20512820513,0.0,2025.0,2032.0,0.0,0.0,4.0,4.0,4.0,4.0,0.0,4.0,4.0,4.0,4.0,2.0,4.0,4.0,4.0,4.0,4.0,4.0
61.0,0.0,4185.128205128207,4181.0256410256425,4149.23076923077,4158.97435897436,4171.794871794873,4182.564102564104,4456.923076923078,4193.333333333335,4201.538461538463,4195.897435897437,4220.000000000002,4208.71794871795,4126.153846153848,4198.97435897436,0.0,2026.0,2033.0,0.0,0.0,4.0,4.0,4.0,4.0,0.0,4.0,4.0,4.0,4.0,2.0,4.0,4.0,4.0,4.0,4.0,4.0
62.0,0.0,4206.153846153848,4188.71794871795,4179.487179487181,4164.615384615386,4174.3589743589755,4189.743589743592,4487.179487179488,4203.589743589745,4205.641025641027,4196.410256410258,4217.94871794872,4236.410256410258,4135.384615384617,4215.897435897437,0.0,2026.0,2033.0,0.0,0.0,4.0,4.0,4.0,4.0,0.0,4.0,4.0,4.0,4.0,2.0,4.0,4.0,4.0,4.0,4.0,4.0
63.0,0.0,4197.435897435899,4208.20512820513,4173.333333333335,4185.641025641027,4173.333333333335,4192.307692307694,4521.0256410256425,4201.0256410256425,4192.8205128205145,4192.8205128205145,4201.0256410256425,4239.487179487181,4118.46153846154,4205.641025641027,0.0,2026.0,2033.0,0.0,0.0,4.0,4.0,4.0,4.0,0.0,4.0,4.0,4.0,4.0,2.0,4.0,4.0,4.0,4.0,4.0,4.0
64.0,0.0,4171.282051282053,4207.692307692309,4148.71794871795,4192.307692307694,4177.94871794872,4187.179487179489,4520.512820512822,4195.384615384617,4192.307692307694,4192.8205128205145,4203.076923076925,4208.20512820513,4096.410256410258,4170.256410256412,808.0,2028.0,2033.0,0.0,0.0,4.0,4.0,4.0,4.0,0.0,4.0,4.0,4.0,4.0,2.0,4.0,4.0,4.0,4.0,4.0,4.0
65.0,0.0,4171.794871794873,4200.000000000002,4146.153846153848,4174.871794871797,4178.46153846154,4183.076923076925,4501.538461538463,4191.282051282053,4195.897435897437,4195.897435897437,4211.794871794873,4196.410256410258,4102.564102564104,4165.128205128207,844.0,2030.0,2033.0,0.0,0.0,4.0,4.0,4.0,4.0,0.0,4.0,4.0,4.0,4.0,2.0,4.0,4.0,4.0,4.0,4.0,4.0
66.0,0.0,4209.23076923077,4210.769230769232,4176.923076923078,4167.179487179489,4173.846153846155,4190.769230769232,4524.615384615386,4210.769230769232,4201.0256410256425,4196.923076923078,4217.94871794872,4244.102564102565,4136.923076923078,4210.256410256412,838.0,2034.0,2034.0,0.0,0.0,4.0,4.0,4.0,4.0,0.0,4.0,4.0,4.0,4.0,2.0,4.0,4.0,4.0,4.0,4.0,4.0
67.0,0.0,4221.0256410256425,4209.743589743592,4192.8205128205145,4185.641025641027,4175.384615384617,4197.435897435899,4540.512820512822,4221.538461538463,4207.692307692309,4196.923076923078,4223.589743589745,4268.20512820513,4145.128205128207,4240.000000000002,830.0,2034.0,2033.0,0.0,0.0,4.0,4.0,4.0,4.0,0.0,4.0,4.0,4.0,4.0,2.0,4.0,4.0,4.0,4.0,4.0,4.0
68.0,0.0,4176.923076923078,4192.8205128205145,4148.20512820513,4182.564102564104,4169.743589743592,4187.692307692309,4494.3589743589755,4190.769230769232,4200.000000000002,4193.846153846155,4220.512820512822,4206.666666666668,4125.128205128207,4201.0256410256425,0.0,2035.0,2033.0,0.0,0.0,4.0,4.0,4.0,4.0,0.0,4.0,4.0,4.0,4.0,2.0,4.0,4.0,4.0,4.0,4.0,4.0
69.0,0.0,4163.589743589745,4206.666666666668,4131.282051282053,4176.410256410258,4172.307692307694,4188.20512820513,4476.410256410258,4173.333333333335,4189.23076923077,4191.282051282053,4213.333333333335,4175.384615384617,4141.538461538463,4173.333333333335,630.0,2037.0,2031.0,0.0,0.0,4.0,4.0,4.0,4.0,0.0,4.0,4.0,4.0,4.0,2.0,4.0,4.0,4.0,4.0,4.0,4.0
70.0,0.0,4222.564102564104,4232.8205128205145,4194.3589743589755,4185.128205128207,4176.410256410258,4201.0256410256425,4532.307692307694,4211.794871794873,4198.46153846154,4193.333333333335,4214.3589743589755,4249.23076923077,4174.871794871797,4221.538461538463,793.0,2038.0,2030.0,0.0,0.0,4.0,4.0,4.0,4.0,0.0,4.0,4.0,4.0,4.0,2.0,4.0,4.0,4.0,4.0,4.0,4.0
71.0,0.0,4234.871794871797,4220.000000000002,4209.23076923077,4187.179487179489,4171.282051282053,4200.512820512822,4551.794871794873,4227.692307692309,4204.102564102565,4197.435897435899,4217.94871794872,4276.923076923078,4158.46153846154,4238.46153846154,861.0,2039.0,2032.0,0.0,0.0,4.0,4.0,4.0,4.0,0.0,4.0,4.0,4.0,4.0,2.0,4.0,4.0,4.0,4.0,4.0,4.0
72.0,0.0,4191.282051282053,4215.897435897437,4154.871794871797,4202.564102564104,4175.897435897437,4196.923076923078,4511.794871794873,4198.46153846154,4198.46153846154,4196.923076923078,4213.846153846155,4218.46153846154,4141.0256410256425,4193.846153846155,766.0,2039.0,2033.0,0.0,0.0,4.0,4.0,4.0,4.0,0.0,4.0,4.0,4.0,4.0,2.0,4.0,4.0,4.0,4.0,4.0,4.0
73.0,0.0,4204.102564102565,4238.97435897436,4161.538461538463,4206.153846153848,4174.871794871797,4201.0256410256425,4509.23076923077,4202.051282051283,4201.0256410256425,4194.871794871797,4220.000000000002,4225.128205128207,4166.153846153848,4203.076923076925,179.0,2038.0,2034.0,0.0,0.0,4.0,4.0,4.0,4.0,0.0,4.0,4.0,4.0,4.0,2.0,4.0,4.0,4.0,4.0,4.0,4.0
74.0,0.0,4247.179487179489,4227.179487179489,4215.384615384617,4191.794871794873,4175.897435897437,4203.076923076925,4517.94871794872,4228.20512820513,4202.564102564104,4195.897435897437,4226.153846153848,4277.435897435899,4175.384615384617,4252.307692307694,857.0,2039.0,2034.0,0.0,0.0,4.0,4.0,4.0,4.0,0.0,4.0,4.0,4.0,4.0,2.0,4.0,4.0,4.0,4.0,4.0,4.0
75.0,0.0,4246.666666666668,4205.128205128207,4225.641025641027,4195.384615384617,4177.94871794872,4191.282051282053,4459.487179487181,4223.589743589745,4194.871794871797,4193.333333333335,4208.20512820513,4274.871794871797,4164.615384615386,4253.846153846155,819.0,2038.0,2036.0,0.0,0.0,4.0,4.0,4.0,4.0,0.0,4.0,4.0,4.0,4.0,2.0,4.0,4.0,4.0,4.0,4.0,4.0
76.0,0.0,4206.153846153848,4224.102564102565,4176.410256410258,4203.076923076925,4172.307692307694,4181.0256410256425,4394.3589743589755,4194.871794871797,4184.615384615386,4192.307692307694,4192.8205128205145,4228.20512820513,4163.589743589745,4207.692307692309,833.0,2038.0,2035.0,0.0,0.0,4.0,4.0,4.0,4.0,0.0,4.0,4.0,4.0,4.0,2.0,4.0,4.0,4.0,4.0,4.0,4.0
77.0,0.0,4180.512820512822,4233.846153846155,4138.97435897436,4192.307692307694,4177.435897435899,4188.20512820513,4420.000000000002,4174.3589743589755,4170.769230769232,4188.71794871795,4188.20512820513,4202.564102564104,4149.743589743592,4184.615384615386,849.0,2039.0,2039.0,0.0,0.0,4.0,4.0,4.0,4.0,0.0,4.0,4.0,4.0,4.0,2.0,4.0,4.0,4.0,4.0,4.0,4.0
78.0,0.0,4178.97435897436,4208.71794871795,4143.076923076925,4191.282051282053,4179.487179487181,4192.8205128205145,4457.435897435899,4176.923076923078,4161.538461538463,4180.000000000002,4185.641025641027,4195.384615384617,4130.769230769232,4185.128205128207,857.0,2039.0,2043.0,0.0,0.0,4.0,4.0,4.0,4.0,0.0,4.0,4.0,4.0,4.0,2.0,4.0,4.0,4.0,4.0,4.0,4.0
79.0,0.0,4192.8205128205145,4208.20512820513,4173.846153846155,4182.564102564104,4178.97435897436,4192.307692307694,4410.256410256412,4190.769230769232,4168.20512820513,4184.615384615386,4185.128205128207,4209.743589743592,4132.307692307694,4198.46153846154,819.0,2040.0,2048.0,0.0,0.0,4.0,4.0,4.0,4.0,0.0,4.0,4.0,4.0,4.0,2.0,4.0,4.0,4.0,4.0,4.0,4.0
80.0,0.0,4216.410256410258,4206.153846153848,4204.615384615386,4146.666666666668,4177.94871794872,4195.897435897437,4384.102564102565,4205.641025641027,4168.20512820513,4188.71794871795,4177.435897435899,4253.333333333335,4127.179487179489,4223.589743589745,833.0,2040.0,2049.0,0.0,0.0,4.0,4.0,4.0,4.0,0.0,4.0,4.0,4.0,4.0,2.0,4.0,4.0,4.0,4.0,4.0,4.0
81.0,0.0,4215.384615384617,4187.179487179489,4188.20512820513,4165.641025641027,4171.282051282053,4193.333333333335,4422.564102564104,4205.641025641027,4165.128205128207,4181.538461538463,4177.94871794872,4245.641025641027,4134.871794871797,4217.435897435899,849.0,2041.0,2048.0,0.0,0.0,4.0,4.0,4.0,4.0,0.0,4.0,4.0,4.0,4.0,2.0,4.0,4.0,4.0,4.0,4.0,4.0
82.0,0.0,4214.3589743589755,4220.512820512822,4175.384615384617,4236.410256410258,4175.897435897437,4193.846153846155,4377.435897435899,4206.153846153848,4185.128205128207,4187.692307692309,4202.051282051283,4226.153846153848,4182.564102564104,4216.410256410258,857.0,2041.0,2044.0,0.0,0.0,4.0,4.0,4.0,4.0,0.0,4.0,4.0,4.0,4.0,2.0,4.0,4.0,4.0,4.0,4.0,4.0
83.0,0.0,4235.384615384617,4258.97435897436,4206.666666666668,4253.846153846155,4174.3589743589755,4196.410256410258,4247.179487179489,4223.076923076925,4197.94871794872,4200.000000000002,4215.384615384617,4263.076923076925,4190.769230769232,4245.128205128207,819.0,2043.0,2042.0,0.0,0.0,4.0,4.0,4.0,4.0,0.0,4.0,4.0,4.0,4.0,2.0,4.0,4.0,4.0,4.0,4.0,4.0
84.0,0.0,4218.97435897436,4227.692307692309,4204.102564102565,4210.769230769232,4173.846153846155,4191.794871794873,4152.8205128205145,4211.794871794873,4184.615384615386,4192.8205128205145,4200.512820512822,4258.97435897436,4156.923076923078,4228.20512820513,833.0,2043.0,2041.0,0.0,0.0,4.0,4.0,4.0,4.0,0.0,4.0,4.0,4.0,4.0,2.0,4.0,4.0,4.0,4.0,4.0,4.0
85.0,0.0,4183.589743589745,4199.487179487181,4160.512820512822,4166.153846153848,4178.46153846154,4185.128205128207,4078.46153846154,4178.46153846154,4171.282051282053,4184.615384615386,4185.128205128207,4212.307692307694,4167.692307692309,4190.769230769232,849.0,2045.0,2043.0,0.0,0.0,4.0,4.0,4.0,4.0,0.0,4.0,4.0,4.0,4.0,2.0,4.0,4.0,4.0,4.0,4.0,4.0
86.0,0.0,4212.8205128205145,4209.23076923077,4184.615384615386,4141.538461538463,4172.307692307694,4189.23076923077,4033.333333333335,4201.538461538463,4181.0256410256425,4193.333333333335,4201.0256410256425,4242.564102564104,4206.153846153848,4229.23076923077,857.0,2046.0,2046.0,0.0,0.0,4.0,4.0,4.0,4.0,0.0,4.0,4.0,4.0,4.0,2.0,4.0,4.0,4.0,4.0,4.0,4.0
87.0,0.0,4237.435897435899,4214.871794871797,4220.512820512822,4186.153846153848,4173.333333333335,4200.000000000002,4040.512820512822,4231.282051282053,4191.794871794873,4195.897435897437,4220.512820512822,4275.384615384617,4186.666666666668,4260.000000000002,819.0,2048.0,2047.0,0.0,0.0,4.0,4.0,4.0,4.0,0.0,4.0,4.0,4.0,4.0,2.0,4.0,4.0,4.0,4.0,4.0,4.0
88.0,0.0,4188.20512820513,4221.538461538463,4164.102564102565,4241.0256410256425,4175.897435897437,4189.23076923077,4012.3076923076937,4190.769230769232,4161.538461538463,4181.538461538463,4174.871794871797,4229.743589743592,4135.897435897437,4204.102564102565,833.0,2047.0,2048.0,0.0,0.0,4.0,4.0,4.0,4.0,0.0,4.0,4.0,4.0,4.0,2.0,4.0,4.0,4.0,4.0,4.0,4.0
89.0,0.0,4207.692307692309,4227.692307692309,4178.97435897436,4188.20512820513,4176.410256410258,4180.000000000002,4000.0000000000014,4187.179487179489,4140.512820512822,4176.923076923078,4141.0256410256425,4252.8205128205145,4143.076923076925,4212.307692307694,849.0,2046.0,2048.0,0.0,0.0,4.0,4.0,4.0,4.0,0.0,4.0,4.0,4.0,4.0,2.0,4.0,4.0,4.0,4.0,4.0,4.0
90.0,0.0,4272.307692307694,4202.564102564104,4258.46153846154,4137.94871794872,4178.46153846154,4192.307692307694,4066.6666666666683,4241.0256410256425,4176.923076923078,4191.282051282053,4200.000000000002,4314.3589743589755,4175.384615384617,4274.871794871797,857.0,2045.0,2049.0,0.0,0.0,4.0,4.0,4.0,4.0,0.0,4.0,4.0,4.0,4.0,2.0,4.0,4.0,4.0,4.0,4.0,4.0
91.0,0.0,4226.666666666668,4185.641025641027,4202.564102564104,4185.641025641027,4173.846153846155,4193.333333333335,4069.743589743591,4222.051282051283,4196.410256410258,4195.384615384617,4230.769230769232,4250.256410256412,4186.153846153848,4230.256410256412,819.0,2043.0,2051.0,0.0,0.0,4.0,4.0,4.0,4.0,0.0,4.0,4.0,4.0,4.0,2.0,4.0,4.0,4.0,4.0,4.0,4.0
92.0,0.0,4177.435897435899,4211.282051282053,4136.410256410258,4224.102564102565,4178.97435897436,4186.666666666668,4016.9230769230785,4172.307692307694,4170.769230769232,4186.666666666668,4187.692307692309,4188.20512820513,4177.435897435899,4179.487179487181,833.0,2045.0,2051.0,0.0,0.0,4.0,4.0,4.0,4.0,0.0,4.0,4.0,4.0,4.0,2.0,4.0,4.0,4.0,4.0,4.0,4.0
93.0,0.0,4202.564102564104,4216.410256410258,4171.794871794873,4197.435897435899,4177.435897435899,4184.615384615386,4020.512820512822,4178.46153846154,4154.871794871797,4184.615384615386,4165.641025641027,4223.076923076925,4161.538461538463,4210.256410256412,849.0,2046.0,2051.0,0.0,0.0,4.0,4.0,4.0,4.0,0.0,4.0,4.0,4.0,4.0,2.0,4.0,4.0,4.0,4.0,4.0,4.0
94.0,0.0,4209.743589743592,4176.410256410258,4190.769230769232,4175.897435897437,4174.3589743589755,4181.0256410256425,4018.46153846154,4194.3589743589755,4157.94871794872,4185.128205128207,4176.410256410258,4243.076923076925,4150.256410256412,4222.051282051283,857.0,2046.0,2052.0,0.0,0.0,4.0,4.0,4.0,4.0,0.0,4.0,4.0,4.0,4.0,2.0,4.0,4.0,4.0,4.0,4.0,4.0
95.0,0.0,4186.666666666668,4158.46153846154,4157.94871794872,4177.435897435899,4181.0256410256425,4178.97435897436,3963.589743589745,4182.564102564104,4155.384615384617,4182.051282051283,4179.487179487181,4213.333333333335,4148.20512820513,4186.153846153848,819.0,2048.0,2052.0,0.0,0.0,4.0,4.0,4.0,4.0,0.0,4.0,4.0,4.0,4.0,2.0,4.0,4.0,4.0,4.0,4.0,4.0
96.0,0.0,4178.46153846154,4185.641025641027,4131.282051282053,4199.487179487181,4173.333333333335,4180.512820512822,3939.487179487181,4161.0256410256425,4147.692307692309,4180.000000000002,4174.871794871797,4189.743589743592,4148.71794871795,4163.589743589745,833.0,2049.0,2050.0,0.0,0.0,4.0,4.0,4.0,4.0,0.0,4.0,4.0,4.0,4.0,2.0,4.0,4.0,4.0,4.0,4.0,4.0
97.0,0.0,4176.410256410258,4202.564102564104,4136.923076923078,4218.46153846154,4175.384615384617,4180.000000000002,3998.46153846154,4153.846153846155,4145.641025641027,4180.512820512822,4169.23076923077,4187.692307692309,4130.769230769232,4165.128205128207,849.0,2048.0,2047.0,0.0,0.0,4.0,4.0,4.0,4.0,0.0,4.0,4.0,4.0,4.0,2.0,4.0,4.0,4.0,4.0,4.0,4.0
98.0,0.0,4167.692307692309,4185.128205128207,4148.71794871795,4186.153846153848,4183.076923076925,4172.8205128205145,4070.256410256412,4167.179487179489,4153.333333333335,4180.512820512822,4173.333333333335,4186.666666666668,4123.589743589745,4173.333333333335,857.0,2047.0,2047.0,0.0,0.0,4.0,4.0,4.0,4.0,0.0,4.0,4.0,4.0,4.0,2.0,4.0,4.0,4.0,4.0,4.0,4.0
99.0,0.0,4180.512820512822,4170.769230769232,4147.692307692309,4150.256410256412,4175.897435897437,4170.256410256412,4099.487179487181,4181.538461538463,4163.589743589745,4184.102564102565,4182.051282051283,4206.666666666668,4129.743589743592,4198.46153846154,819.0,2046.0,2044.0,0.0,0.0,4.0,4.0,4.0,4.0,0.0,4.0,4.0,4.0,4.0,2.0,4.0,4.0,4.0,4.0,4.0,4.0
100.0,0.0,4196.410256410258,4182.051282051283,4132.8205128205145,4154.871794871797,4174.3589743589755,4177.94871794872,4095.8974358974374,4176.923076923078,4168.71794871795,4186.153846153848,4180.512820512822,4218.97435897436,4122.564102564104,4196.410256410258,833.0,2045.0,2042.0,0.0,0.0,4.0,4.0,4.0,4.0,0.0,4.0,4.0,4.0,4.0,2.0,4.0,4.0,4.0,4.0,4.0,4.0
101.0,0.0,4205.128205128207,4208.20512820513,4147.179487179489,4181.0256410256425,4177.435897435899,4185.641025641027,4069.743589743591,4175.897435897437,4171.794871794873,4183.589743589745,4185.641025641027,4210.769230769232,4134.3589743589755,4182.051282051283,849.0,2043.0,2034.0,0.0,0.0,4.0,4.0,4.0,4.0,0.0,4.0,4.0,4.0,4.0,2.0,4.0,4.0,4.0,4.0,4.0,4.0
102.0,0.0,4226.666666666668,4215.384615384617,4193.846153846155,4207.179487179489,4182.051282051283,4186.153846153848,4012.8205128205145,4179.487179487181,4179.487179487181,4186.153846153848,4198.46153846154,4230.256410256412,4170.769230769232,4216.923076923078,857.0,2041.0,2028.0,0.0,0.0,4.0,4.0,4.0,4.0,0.0,4.0,4.0,4.0,4.0,2.0,4.0,4.0,4.0,4.0,4.0,4.0
103.0,0.0,4227.692307692309,4207.179487179489,4185.641025641027,4208.71794871795,4174.871794871797,4180.000000000002,3995.384615384617,4173.846153846155,4180.512820512822,4188.71794871795,4199.487179487181,4241.0256410256425,4185.641025641027,4244.615384615386,819.0,2038.0,2023.0,0.0,0.0,4.0,4.0,4.0,4.0,0.0,4.0,4.0,4.0,4.0,2.0,4.0,4.0,4.0,4.0,4.0,4.0
104.0,0.0,4205.128205128207,4214.871794871797,4139.487179487181,4196.923076923078,4170.256410256412,4175.384615384617,4074.358974358976,4164.615384615386,4173.333333333335,4184.615384615386,4193.333333333335,4217.94871794872,4171.794871794873,4221.538461538463,833.0,2035.0,2018.0,0.0,0.0,4.0,4.0,4.0,4.0,0.0,4.0,4.0,4.0,4.0,2.0,4.0,4.0,4.0,4.0,4.0,4.0
105.0,0.0,4194.3589743589755,4212.307692307694,4141.0256410256425,4184.615384615386,4183.076923076925,4173.333333333335,4106.666666666668,4153.846153846155,4160.512820512822,4181.0256410256425,4177.94871794872,4202.051282051283,4163.589743589745,4201.538461538463,849.0,2031.0,2019.0,0.0,0.0,4.0,4.0,4.0,4.0,0.0,4.0,4.0,4.0,4.0,2.0,4.0,4.0,4.0,4.0,4.0,4.0
106.0,0.0,4191.794871794873,4188.71794871795,4160.000000000002,4171.794871794873,4180.000000000002,4168.71794871795,4067.692307692309,4156.923076923078,4148.20512820513,4178.46153846154,4164.615384615386,4204.615384615386,4159.487179487181,4205.641025641027,857.0,2024.0,2021.0,0.0,0.0,4.0,4.0,4.0,4.0,0.0,4.0,4.0,4.0,4.0,2.0,4.0,4.0,4.0,4.0,4.0,4.0
107.0,0.0,4191.282051282053,4197.435897435899,4158.97435897436,4180.512820512822,4175.384615384617,4176.410256410258,4101.538461538463,4175.897435897437,4175.384615384617,4184.615384615386,4196.410256410258,4211.282051282053,4167.179487179489,4215.384615384617,819.0,2022.0,2022.0,0.0,0.0,4.0,4.0,4.0,4.0,0.0,4.0,4.0,4.0,4.0,2.0,4.0,4.0,4.0,4.0,4.0,4.0
108.0,0.0,4208.20512820513,4212.8205128205145,4172.307692307694,4198.46153846154,4180.000000000002,4184.102564102565,4148.71794871795,4192.8205128205145,4213.846153846155,4197.435897435899,4228.20512820513,4237.94871794872,4179.487179487181,4232.307692307694,833.0,2020.0,2025.0,0.0,0.0,4.0,4.0,4.0,4.0,0.0,4.0,4.0,4.0,4.0,2.0,4.0,4.0,4.0,4.0,4.0,4.0
109.0,0.0,4204.102564102565,4185.128205128207,4175.384615384617,4173.846153846155,4177.94871794872,4176.410256410258,4117.94871794872,4192.307692307694,4185.641025641027,4189.23076923077,4186.666666666668,4239.487179487181,4160.000000000002,4216.923076923078,849.0,2019.0,2027.0,0.0,0.0,4.0,4.0,4.0,4.0,0.0,4.0,4.0,4.0,4.0,2.0,4.0,4.0,4.0,4.0,4.0,4.0
110.0,0.0,4171.282051282053,4164.102564102565,4144.102564102565,4117.435897435899,4178.97435897436,4172.8205128205145,4119.487179487181,4171.282051282053,4131.282051282053,4170.769230769232,4142.051282051283,4191.794871794873,4148.20512820513,4177.94871794872,857.0,2019.0,2030.0,0.0,0.0,4.0,4.0,4.0,4.0,0.0,4.0,4.0,4.0,4.0,2.0,4.0,4.0,4.0,4.0,4.0,4.0
111.0,0.0,4178.46153846154,4183.076923076925,4140.512820512822,4143.076923076925,4175.897435897437,4171.282051282053,4166.153846153848,4163.076923076925,4142.051282051283,4174.3589743589755,4162.564102564104,4190.769230769232,4172.8205128205145,4189.743589743592,819.0,2018.0,2030.0,0.0,0.0,4.0,4.0,4.0,4.0,0.0,4.0,4.0,4.0,4.0,2.0,4.0,4.0,4.0,4.0,4.0,4.0
112.0,0.0,4220.512820512822,4218.97435897436,4180.000000000002,4227.179487179489,4175.897435897437,4176.410256410258,4145.128205128207,4188.20512820513,4181.0256410256425,4189.23076923077,4195.897435897437,4246.153846153848,4204.102564102565,4227.692307692309,833.0,2016.0,2028.0,0.0,0.0,4.0,4.0,4.0,4.0,0.0,4.0,4.0,4.0,4.0,2.0,4.0,4.0,4.0,4.0,4.0,4.0
113.0,0.0,4210.769230769232,4227.692307692309,4175.897435897437,4232.307692307694,4178.46153846154,4182.051282051283,4111.794871794873,4202.564102564104,4176.410256410258,4187.692307692309,4190.769230769232,4230.769230769232,4207.179487179489,4211.282051282053,849.0,2016.0,2027.0,0.0,0.0,4.0,4.0,4.0,4.0,0.0,4.0,4.0,4.0,4.0,2.0,4.0,4.0,4.0,4.0,4.0,4.0
114.0,0.0,4162.051282051283,4200.000000000002,4134.871794871797,4183.076923076925,4176.410256410258,4171.282051282053,4110.256410256412,4173.333333333335,4152.8205128205145,4176.923076923078,4170.769230769232,4166.666666666668,4189.23076923077,4168.20512820513,857.0,2015.0,2024.0,0.0,0.0,4.0,4.0,4.0,4.0,0.0,4.0,4.0,4.0,4.0,2.0,4.0,4.0,4.0,4.0,4.0,4.0
115.0,0.0,4168.20512820513,4189.23076923077,4146.666666666668,4176.410256410258,4183.589743589745,4163.076923076925,4105.128205128207,4155.897435897437,4154.3589743589755,4176.410256410258,4166.666666666668,4188.20512820513,4176.410256410258,4180.512820512822,819.0,2015.0,2023.0,0.0,0.0,4.0,4.0,4.0,4.0,0.0,4.0,4.0,4.0,4.0,2.0,4.0,4.0,4.0,4.0,4.0,4.0
116.0,0.0,4211.794871794873,4203.589743589745,4184.615384615386,4180.512820512822,4176.923076923078,4173.333333333335,4126.666666666668,4191.282051282053,4169.743589743592,4182.051282051283,4176.410256410258,4254.3589743589755,4193.333333333335,4224.102564102565,833.0,2016.0,2024.0,0.0,0.0,4.0,4.0,4.0,4.0,0.0,4.0,4.0,4.0,4.0,2.0,4.0,4.0,4.0,4.0,4.0,4.0
117.0,0.0,4205.641025641027,4206.153846153848,4176.410256410258,4158.97435897436,4169.23076923077,4185.128205128207,4102.051282051283,4209.743589743592,4171.794871794873,4182.564102564104,4184.102564102565,4238.97435897436,4215.384615384617,4222.051282051283,849.0,2017.0,2025.0,0.0,0.0,4.0,4.0,4.0,4.0,0.0,4.0,4.0,4.0,4.0,2.0,4.0,4.0,4.0,4.0,4.0,4.0
118.0,0.0,4165.641025641027,4201.538461538463,4137.435897435899,4169.743589743592,4179.487179487181,4180.512820512822,4008.2051282051298,4171.282051282053,4156.410256410258,4178.46153846154,4171.282051282053,4180.512820512822,4206.666666666668,4184.102564102565,857.0,2017.0,2024.0,0.0,0.0,4.0,4.0,4.0,4.0,0.0,4.0,4.0,4.0,4.0,2.0,4.0,4.0,4.0,4.0,4.0,4.0
119.0,0.0,4172.8205128205145,4204.615384615386,4144.615384615386,4201.538461538463,4183.589743589745,4172.8205128205145,4079.487179487181,4154.871794871797,4149.743589743592,4177.94871794872,4157.435897435899,4193.333333333335,4197.94871794872,4183.589743589745,819.0,2019.0,2020.0,0.0,0.0,4.0,4.0,4.0,4.0,0.0,4.0,4.0,4.0,4.0,2.0,4.0,4.0,4.0,4.0,4.0,4.0
120.0,0.0,4222.051282051283,4221.538461538463,4203.589743589745,4200.000000000002,4184.102564102565,4183.076923076925,4316.410256410258,4196.410256410258,4175.897435897437,4187.692307692309,4185.641025641027,4252.307692307694,4222.051282051283,4228.20512820513,833.0,2020.0,2019.0,0.0,0.0,4.0,4.0,4.0,4.0,0.0,4.0,4.0,4.0,4.0,2.0,4.0,4.0,4.0,4.0,4.0,4.0
121.0,0.0,4225.128205128207,4226.153846153848,4204.615384615386,4183.076923076925,4177.435897435899,4192.8205128205145,4397.94871794872,4211.282051282053,4180.512820512822,4188.71794871795,4196.410256410258,4258.97435897436,4225.128205128207,4238.46153846154,849.0,2020.0,2019.0,0.0,0.0,4.0,4.0,4.0,4.0,0.0,4.0,4.0,4.0,4.0,2.0,4.0,4.0,4.0,4.0,4.0,4.0
122.0,0.0,4193.846153846155,4201.538461538463,4160.512820512822,4157.94871794872,4170.256410256412,4185.128205128207,4349.743589743592,4181.0256410256425,4141.0256410256425,4174.3589743589755,4153.846153846155,4228.71794871795,4195.897435897437,4205.641025641027,857.0,2019.0,2021.0,0.0,0.0,4.0,4.0,4.0,4.0,0.0,4.0,4.0,4.0,4.0,2.0,4.0,4.0,4.0,4.0,4.0,4.0
123.0,0.0,4197.94871794872,4200.512820512822,4168.20512820513,4151.282051282053,4176.410256410258,4174.3589743589755,4360.512820512822,4176.410256410258,4141.0256410256425,4172.8205128205145,4154.871794871797,4222.564102564104,4210.256410256412,4202.051282051283,819.0,2020.0,2034.0,0.0,0.0,4.0,4.0,4.0,4.0,0.0,4.0,4.0,4.0,4.0,2.0,4.0,4.0,4.0,4.0,4.0,4.0
124.0,0.0,4210.256410256412,4243.589743589745,4186.153846153848,4193.333333333335,4178.97435897436,4172.307692307694,4267.179487179489,4187.692307692309,4174.3589743589755,4183.589743589745,4195.897435897437,4229.743589743592,4232.307692307694,4217.435897435899,833.0,2020.0,2040.0,0.0,0.0,4.0,4.0,4.0,4.0,0.0,4.0,4.0,4.0,4.0,2.0,4.0,4.0,4.0,4.0,4.0,4.0
125.0,0.0,4212.307692307694,4212.307692307694,4193.333333333335,4202.564102564104,4184.102564102565,4178.97435897436,4062.564102564104,4182.051282051283,4165.641025641027,4185.128205128207,4183.076923076925,4239.487179487181,4194.3589743589755,4220.512820512822,849.0,2020.0,2045.0,0.0,0.0,4.0,4.0,4.0,4.0,0.0,4.0,4.0,4.0,4.0,2.0,4.0,4.0,4.0,4.0,4.0,4.0
126.0,0.0,4222.051282051283,4136.410256410258,4206.666666666668,4160.000000000002,4181.538461538463,4184.102564102565,4106.666666666668,4191.282051282053,4140.000000000002,4179.487179487181,4150.256410256412,4256.410256410258,4176.410256410258,4220.000000000002,857.0,2024.0,2045.0,0.0,0.0,4.0,4.0,4.0,4.0,0.0,4.0,4.0,4.0,4.0,2.0,4.0,4.0,4.0,4.0,4.0,4.0
127.0,0.0,4222.564102564104,4197.435897435899,4193.846153846155,4191.794871794873,4176.410256410258,4184.615384615386,4360.512820512822,4208.20512820513,4151.794871794873,4179.487179487181,4167.179487179489,4255.384615384617,4215.897435897437,4220.000000000002,819.0,2028.0,2046.0,0.0,0.0,4.0,4.0,4.0,4.0,0.0,4.0,4.0,4.0,4.0,2.0,4.0,4.0,4.0,4.0,4.0,4.0
128.0,0.0,4200.000000000002,4286.153846153848,4161.0256410256425,4248.71794871795,4184.102564102565,4178.97435897436,4391.794871794873,4187.179487179489,4160.512820512822,4181.538461538463,4179.487179487181,4225.641025641027,4221.0256410256425,4207.179487179489,833.0,2031.0,2040.0,0.0,0.0,4.0,4.0,4.0,4.0,0.0,4.0,4.0,4.0,4.0,2.0,4.0,4.0,4.0,4.0,4.0,4.0
0.0,0.0,4174.871794871797,4228.20512820513,4141.538461538463,4205.641025641027,4182.051282051283,4163.076923076925,4209.743589743592,4153.333333333335,4137.435897435899,4177.94871794872,4154.3589743589755,4191.282051282053,4181.0256410256425,4178.46153846154,809.0,2034.0,2037.0,0.0,0.0,4.0,4.0,4.0,4.0,0.0,4.0,4.0,4.0,4.0,2.0,4.0,4.0,4.0,4.0,4.0,4.0
1.0,0.0,4156.923076923078,4179.487179487181,4131.282051282053,4177.94871794872,4179.487179487181,4163.589743589745,4110.256410256412,4153.846153846155,4124.615384615386,4171.794871794873,4147.179487179489,4174.871794871797,4169.743589743592,4156.410256410258,870.0,2038.0,2034.0,0.0,0.0,4.0,4.0,4.0,4.0,0.0,4.0,4.0,4.0,4.0,2.0,4.0,4.0,4.0,4.0,4.0,4.0
2.0,0.0,4163.589743589745,4218.97435897436,4137.435897435899,4218.46153846154,4177.94871794872,4171.794871794873,4113.846153846155,4171.282051282053,4133.333333333335,4172.8205128205145,4156.923076923078,4190.256410256412,4172.307692307694,4165.128205128207,841.0,2041.0,2033.0,0.0,0.0,4.0,4.0,4.0,4.0,0.0,4.0,4.0,4.0,4.0,2.0,4.0,4.0,4.0,4.0,4.0,4.0
3.0,0.0,4231.794871794873,4196.923076923078,4215.897435897437,4149.743589743592,4174.3589743589755,4173.333333333335,4164.102564102565,4201.538461538463,4151.794871794873,4184.102564102565,4166.666666666668,4263.076923076925,4177.435897435899,4227.692307692309,836.0,2046.0,2036.0,0.0,0.0,4.0,4.0,4.0,4.0,0.0,4.0,4.0,4.0,4.0,2.0,4.0,4.0,4.0,4.0,4.0,4.0
4.0,0.0,4268.71794871795,4189.743589743592,4254.871794871797,4097.435897435899,4177.435897435899,4185.128205128207,4205.128205128207,4224.102564102565,4163.076923076925,4189.743589743592,4180.512820512822,4299.487179487181,4199.487179487181,4262.051282051283,0.0,2048.0,2038.0,0.0,0.0,4.0,4.0,4.0,4.0,0.0,4.0,4.0,4.0,4.0,2.0,4.0,4.0,4.0,4.0,4.0,4.0
5.0,0.0,4191.794871794873,4246.153846153848,4153.846153846155,4210.769230769232,4176.923076923078,4188.20512820513,4146.153846153848,4190.256410256412,4151.794871794873,4180.512820512822,4180.512820512822,4214.3589743589755,4192.307692307694,4187.692307692309,630.0,2051.0,2041.0,0.0,0.0,4.0,4.0,4.0,4.0,0.0,4.0,4.0,4.0,4.0,2.0,4.0,4.0,4.0,4.0,4.0,4.0
6.0,0.0,4154.871794871797,4218.97435897436,4120.512820512822,4240.512820512822,4183.589743589745,4183.076923076925,4094.8717948717963,4161.0256410256425,4141.0256410256425,4175.897435897437,4160.512820512822,4169.743589743592,4172.307692307694,4149.743589743592,793.0,2052.0,2042.0,0.0,0.0,4.0,4.0,4.0,4.0,0.0,4.0,4.0,4.0,4.0,2.0,4.0,4.0,4.0,4.0,4.0,4.0
7.0,0.0,4220.000000000002,4188.20512820513,4211.282051282053,4134.3589743589755,4185.641025641027,4184.615384615386,4112.8205128205145,4186.153846153848,4144.615384615386,4179.487179487181,4156.923076923078,4245.128205128207,4187.179487179489,4216.923076923078,867.0,2053.0,2043.0,0.0,0.0,4.0,4.0,4.0,4.0,0.0,4.0,4.0,4.0,4.0,2.0,4.0,4.0,4.0,4.0,4.0,4.0
8.0,0.0,4238.97435897436,4221.0256410256425,4226.666666666668,4127.179487179489,4176.923076923078,4186.153846153848,4121.0256410256425,4203.076923076925,4155.384615384617,4183.076923076925,4180.512820512822,4268.20512820513,4196.923076923078,4236.923076923078,766.0,2055.0,2045.0,0.0,0.0,4.0,4.0,4.0,4.0,0.0,4.0,4.0,4.0,4.0,2.0,4.0,4.0,4.0,4.0,4.0,4.0
9.0,0.0,4211.794871794873,4218.97435897436,4186.666666666668,4200.000000000002,4178.46153846154,4188.20512820513,4160.000000000002,4196.923076923078,4160.512820512822,4186.666666666668,4189.743589743592,4233.333333333335,4177.435897435899,4203.076923076925,179.0,2055.0,2045.0,0.0,0.0,4.0,4.0,4.0,4.0,0.0,4.0,4.0,4.0,4.0,2.0,4.0,4.0,4.0,4.0,4.0,4.0
10.0,0.0,4205.128205128207,4195.897435897437,4185.128205128207,4172.307692307694,4175.384615384617,4185.128205128207,4179.487179487181,4193.333333333335,4151.794871794873,4181.538461538463,4173.846153846155,4233.333333333335,4168.71794871795,4197.435897435899,849.0,2055.0,2048.0,0.0,0.0,4.0,4.0,4.0,4.0,0.0,4.0,4.0,4.0,4.0,2.0,4.0,4.0,4.0,4.0,4.0,4.0
11.0,0.0,4190.256410256412,4223.076923076925,4174.871794871797,4126.153846153848,4176.410256410258,4181.0256410256425,4125.128205128207,4181.0256410256425,4137.435897435899,4171.282051282053,4154.871794871797,4225.128205128207,4171.282051282053,4192.307692307694,821.0,2056.0,2046.0,0.0,0.0,4.0,4.0,4.0,4.0,0.0,4.0,4.0,4.0,4.0,2.0,4.0,4.0,4.0,4.0,4.0,4.0
12.0,0.0,4161.538461538463,4228.20512820513,4144.615384615386,4152.307692307694,4181.538461538463,4182.051282051283,4135.897435897437,4163.076923076925,4129.23076923077,4170.769230769232,4141.538461538463,4187.692307692309,4172.307692307694,4161.538461538463,834.0,2055.0,2045.0,0.0,0.0,4.0,4.0,4.0,4.0,0.0,4.0,4.0,4.0,4.0,2.0,4.0,4.0,4.0,4.0,4.0,4.0
13.0,0.0,4152.307692307694,4209.743589743592,4133.333333333335,4174.3589743589755,4176.923076923078,4181.0256410256425,4193.333333333335,4152.8205128205145,4130.769230769232,4175.897435897437,4151.282051282053,4170.256410256412,4183.076923076925,4149.23076923077,854.0,2057.0,2046.0,0.0,0.0,4.0,4.0,4.0,4.0,0.0,4.0,4.0,4.0,4.0,2.0,4.0,4.0,4.0,4.0,4.0,4.0
14.0,0.0,4175.897435897437,4224.615384615386,4159.487179487181,4179.487179487181,4179.487179487181,4176.410256410258,4211.794871794873,4163.076923076925,4141.538461538463,4178.97435897436,4168.71794871795,4200.512820512822,4187.692307692309,4178.46153846154,849.0,2056.0,2045.0,0.0,0.0,4.0,4.0,4.0,4.0,0.0,4.0,4.0,4.0,4.0,2.0,4.0,4.0,4.0,4.0,4.0,4.0
15.0,0.0,4193.846153846155,4230.256410256412,4178.97435897436,4172.307692307694,4175.897435897437,4176.410256410258,4254.871794871797,4188.71794871795,4144.615384615386,4176.923076923078,4158.97435897436,4222.564102564104,4182.564102564104,4189.743589743592,821.0,2055.0,2047.0,0.0,0.0,4.0,4.0,4.0,4.0,0.0,4.0,4.0,4.0,4.0,2.0,4.0,4.0,4.0,4.0,4.0,4.0
16.0,0.0,4182.564102564104,4229.23076923077,4164.615384615386,4170.769230769232,4175.897435897437,4185.128205128207,4305.128205128207,4183.589743589745,4142.564102564104,4175.897435897437,4154.871794871797,4201.538461538463,4184.615384615386,4173.846153846155,0.0,2055.0,2047.0,0.0,0.0,4.0,4.0,4.0,4.0,0.0,4.0,4.0,4.0,4.0,2.0,4.0,4.0,4.0,4.0,4.0,4.0
17.0,0.0,4173.333333333335,4230.769230769232,4155.384615384617,4181.0256410256425,4182.564102564104,4183.589743589745,4301.538461538463,4158.46153846154,4148.20512820513,4180.512820512822,4175.897435897437,4190.769230769232,4189.743589743592,4175.384615384617,0.0,2053.0,2049.0,0.0,0.0,4.0,4.0,4.0,4.0,0.0,4.0,4.0,4.0,4.0,2.0,4.0,4.0,4.0,4.0,4.0,4.0
18.0,0.0,4180.000000000002,4228.20512820513,4165.641025641027,4180.512820512822,4177.435897435899,4170.769230769232,4285.128205128207,4172.8205128205145,4153.333333333335,4180.512820512822,4180.512820512822,4207.179487179489,4187.179487179489,4185.128205128207,0.0,2052.0,2048.0,0.0,0.0,4.0,4.0,4.0,4.0,0.0,4.0,4.0,4.0,4.0,2.0,4.0,4.0,4.0,4.0,4.0,4.0
19.0,0.0,4187.179487179489,4234.3589743589755,4174.3589743589755,4182.564102564104,4176.410256410258,4168.71794871795,4254.871794871797,4189.743589743592,4157.435897435899,4180.512820512822,4173.846153846155,4213.333333333335,4189.743589743592,4188.71794871795,0.0,2050.0,2046.0,0.0,0.0,4.0,4.0,4.0,4.0,0.0,4.0,4.0,4.0,4.0,2.0,4.0,4.0,4.0,4.0,4.0,4.0
20.0,0.0,4188.20512820513,4234.871794871797,4172.307692307694,4183.076923076925,4176.923076923078,4168.20512820513,4185.641025641027,4176.410256410258,4165.641025641027,4182.564102564104,4178.97435897436,4210.769230769232,4195.384615384617,4185.641025641027,0.0,2050.0,2046.0,0.0,0.0,4.0,4.0,4.0,4.0,0.0,4.0,4.0,4.0,4.0,2.0,4.0,4.0,4.0,4.0,4.0,4.0
21.0,0.0,4182.564102564104,4225.128205128207,4169.743589743592,4177.94871794872,4177.94871794872,4164.102564102565,4124.615384615386,4170.256410256412,4161.0256410256425,4178.97435897436,4173.846153846155,4213.333333333335,4189.23076923077,4176.923076923078,0.0,2049.0,2046.0,0.0,0.0,4.0,4.0,4.0,4.0,0.0,4.0,4.0,4.0,4.0,2.0,4.0,4.0,4.0,4.0,4.0,4.0
22.0,0.0,4176.410256410258,4226.153846153848,4169.743589743592,4174.3589743589755,4178.97435897436,4164.102564102565,4067.692307692309,4181.0256410256425,4152.8205128205145,4176.410256410258,4167.692307692309,4208.71794871795,4186.153846153848,4177.94871794872,0.0,2049.0,2045.0,0.0,0.0,4.0,4.0,4.0,4.0,0.0,4.0,4.0,4.0,4.0,2.0,4.0,4.0,4.0,4.0,4.0,4.0
23.0,0.0,4180.000000000002,4231.282051282053,4172.307692307694,4170.256410256412,4175.384615384617,4164.615384615386,4056.9230769230785,4184.615384615386,4155.384615384617,4179.487179487181,4173.333333333335,4206.153846153848,4188.71794871795,4190.256410256412,0.0,2048.0,2037.0,0.0,0.0,4.0,4.0,4.0,4.0,0.0,4.0,4.0,4.0,4.0,2.0,4.0,4.0,4.0,4.0,4.0,4.0
24.0,0.0,4186.153846153848,4235.384615384617,4175.384615384617,4167.692307692309,4182.051282051283,4164.102564102565,4210.769230769232,4171.794871794873,4155.384615384617,4180.512820512822,4169.23076923077,4213.846153846155,4185.128205128207,4190.769230769232,0.0,2046.0,2034.0,0.0,0.0,4.0,4.0,4.0,4.0,0.0,4.0,4.0,4.0,4.0,2.0,4.0,4.0,4.0,4.0,4.0,4.0
25.0,0.0,4194.3589743589755,4249.743589743592,4176.923076923078,4173.333333333335,4180.000000000002,4161.0256410256425,4393.333333333335,4167.179487179489,4160.512820512822,4180.000000000002,4170.769230769232,4223.076923076925,4196.923076923078,4194.871794871797,0.0,2043.0,2032.0,0.0,0.0,4.0,4.0,4.0,4.0,0.0,4.0,4.0,4.0,4.0,2.0,4.0,4.0,4.0,4.0,4.0,4.0
26.0,0.0,4202.051282051283,4265.128205128207,4182.051282051283,4185.641025641027,4174.3589743589755,4161.538461538463,4414.3589743589755,4175.384615384617,4175.897435897437,4186.666666666668,4189.23076923077,4223.589743589745,4218.46153846154,4208.20512820513,0.0,2042.0,2035.0,0.0,0.0,4.0,4.0,4.0,4.0,0.0,4.0,4.0,4.0,4.0,2.0,4.0,4.0,4.0,4.0,4.0,4.0
27.0,0.0,4200.000000000002,4256.923076923078,4193.846153846155,4174.3589743589755,4182.564102564104,4165.641025641027,4409.23076923077,4183.076923076925,4173.333333333335,4188.71794871795,4189.743589743592,4229.23076923077,4209.23076923077,4204.615384615386,0.0,2042.0,2037.0,0.0,0.0,4.0,4.0,4.0,4.0,0.0,4.0,4.0,4.0,4.0,2.0,4.0,4.0,4.0,4.0,4.0,4.0
28.0,0.0,4192.8205128205145,4241.538461538463,4198.46153846154,4161.538461538463,4180.512820512822,4164.102564102565,4470.769230769232,4185.641025641027,4155.897435897437,4178.97435897436,4168.71794871795,4237.435897435899,4193.846153846155,4196.923076923078,0.0,2044.0,2038.0,0.0,0.0,4.0,4.0,4.0,4.0,0.0,4.0,4.0,4.0,4.0,2.0,4.0,4.0,4.0,4.0,4.0,4.0
29.0,0.0,4192.307692307694,4251.794871794873,4178.46153846154,4198.46153846154,4175.897435897437,4167.179487179489,4466.153846153848,4180.000000000002,4162.564102564104,4177.435897435899,4173.846153846155,4226.153846153848,4217.435897435899,4208.20512820513,0.0,2046.0,2038.0,0.0,0.0,4.0,4.0,4.0,4.0,0.0,4.0,4.0,4.0,4.0,2.0,4.0,4.0,4.0,4.0,4.0,4.0
30.0,0.0,4179.487179487181,4249.23076923077,4136.923076923078,4232.307692307694,4172.307692307694,4168.71794871795,4405.128205128207,4171.794871794873,4171.282051282053,4181.0256410256425,4183.076923076925,4195.384615384617,4232.307692307694,4199.487179487181,0.0,2043.0,2036.0,0.0,0.0,4.0,4.0,4.0,4.0,0.0,4.0,4.0,4.0,4.0,2.0,4.0,4.0,4.0,4.0,4.0,4.0
31.0,0.0,4160.000000000002,4215.384615384617,4135.897435897437,4222.051282051283,4177.94871794872,4165.128205128207,4395.384615384617,4165.641025641027,4155.384615384617,4176.410256410258,4166.666666666668,4186.666666666668,4208.71794871795,4171.794871794873,0.0,2043.0,2037.0,0.0,0.0,4.0,4.0,4.0,4.0,0.0,4.0,4.0,4.0,4.0,2.0,4.0,4.0,4.0,4.0,4.0,4.0
32.0,0.0,4158.97435897436,4193.846153846155,4174.3589743589755,4206.153846153848,4190.256410256412,4165.641025641027,4396.923076923078,4163.076923076925,4148.71794871795,4172.8205128205145,4159.487179487181,4190.769230769232,4195.384615384617,4161.0256410256425,0.0,2045.0,2039.0,0.0,0.0,4.0,4.0,4.0,4.0,0.0,4.0,4.0,4.0,4.0,2.0,4.0,4.0,4.0,4.0,4.0,4.0
33.0,0.0,4177.94871794872,4213.846153846155,4182.564102564104,4200.512820512822,4181.538461538463,4168.71794871795,4384.102564102565,4176.923076923078,4164.102564102565,4180.000000000002,4176.410256410258,4202.051282051283,4222.564102564104,4182.051282051283,0.0,2045.0,2040.0,0.0,0.0,4.0,4.0,4.0,4.0,0.0,4.0,4.0,4.0,4.0,2.0,4.0,4.0,4.0,4.0,4.0,4.0
34.0,0.0,4209.743589743592,4253.333333333335,4185.641025641027,4218.46153846154,4174.3589743589755,4176.410256410258,4370.256410256412,4201.0256410256425,4183.589743589745,4188.20512820513,4199.487179487181,4241.538461538463,4253.846153846155,4225.128205128207,0.0,2043.0,2036.0,0.0,0.0,4.0,4.0,4.0,4.0,0.0,4.0,4.0,4.0,4.0,2.0,4.0,4.0,4.0,4.0,4.0,4.0
35.0,0.0,4216.923076923078,4263.589743589745,4193.333333333335,4225.128205128207,4175.384615384617,4177.435897435899,4344.102564102565,4207.692307692309,4189.743589743592,4187.179487179489,4203.589743589745,4258.46153846154,4258.97435897436,4232.8205128205145,0.0,2041.0,2033.0,0.0,0.0,4.0,4.0,4.0,4.0,0.0,4.0,4.0,4.0,4.0,2.0,4.0,4.0,4.0,4.0,4.0,4.0
36.0,0.0,4198.46153846154,4251.282051282053,4186.666666666668,4205.641025641027,4174.3589743589755,4168.20512820513,4349.23076923077,4200.000000000002,4198.46153846154,4188.20512820513,4208.20512820513,4237.94871794872,4264.102564102565,4212.8205128205145,0.0,2039.0,2027.0,0.0,0.0,4.0,4.0,4.0,4.0,0.0,4.0,4.0,4.0,4.0,2.0,4.0,4.0,4.0,4.0,4.0,4.0
37.0,0.0,4184.615384615386,4245.641025641027,4176.923076923078,4220.000000000002,4180.512820512822,4167.179487179489,4366.666666666668,4191.794871794873,4203.589743589745,4193.333333333335,4213.333333333335,4217.94871794872,4267.692307692309,4208.20512820513,0.0,2038.0,2023.0,0.0,0.0,4.0,4.0,4.0,4.0,0.0,4.0,4.0,4.0,4.0,2.0,4.0,4.0,4.0,4.0,4.0,4.0
38.0,0.0,4166.153846153848,4228.71794871795,4163.076923076925,4235.897435897437,4180.512820512822,4168.20512820513,4345.128205128207,4174.871794871797,4176.410256410258,4183.589743589745,4188.20512820513,4194.871794871797,4237.94871794872,4190.769230769232,0.0,2035.0,2021.0,0.0,0.0,4.0,4.0,4.0,4.0,0.0,4.0,4.0,4.0,4.0,2.0,4.0,4.0,4.0,4.0,4.0,4.0
39.0,0.0,4160.000000000002,4210.769230769232,4157.435897435899,4207.692307692309,4178.97435897436,4168.71794871795,4351.794871794873,4166.153846153848,4157.435897435899,4175.384615384617,4163.589743589745,4185.128205128207,4213.333333333335,4170.256410256412,0.0,2036.0,2019.0,0.0,0.0,4.0,4.0,4.0,4.0,0.0,4.0,4.0,4.0,4.0,2.0,4.0,4.0,4.0,4.0,4.0,4.0
40.0,0.0,4174.871794871797,4228.20512820513,4154.3589743589755,4207.179487179489,4175.384615384617,4169.743589743592,4402.051282051283,4167.692307692309,4168.71794871795,4180.512820512822,4169.743589743592,4199.487179487181,4226.666666666668,4176.410256410258,0.0,2033.0,2017.0,0.0,0.0,4.0,4.0,4.0,4.0,0.0,4.0,4.0,4.0,4.0,2.0,4.0,4.0,4.0,4.0,4.0,4.0
41.0,0.0,4189.743589743592,4245.128205128207,4162.564102564104,4244.615384615386,4173.333333333335,4170.769230769232,4395.384615384617,4167.179487179489,4173.333333333335,4181.538461538463,4179.487179487181,4221.0256410256425,4248.71794871795,4196.923076923078,0.0,2031.0,2016.0,0.0,0.0,4.0,4.0,4.0,4.0,0.0,4.0,4.0,4.0,4.0,2.0,4.0,4.0,4.0,4.0,4.0,4.0
42.0,0.0,4188.71794871795,4227.692307692309,4184.102564102565,4224.615384615386,4184.615384615386,4171.794871794873,4367.179487179488,4177.435897435899,4169.23076923077,4178.46153846154,4174.3589743589755,4223.076923076925,4244.102564102565,4201.538461538463,0.0,2029.0,2015.0,0.0,0.0,4.0,4.0,4.0,4.0,0.0,4.0,4.0,4.0,4.0,2.0,4.0,4.0,4.0,4.0,4.0,4.0
43.0,0.0,4173.333333333335,4217.94871794872,4178.97435897436,4202.564102564104,4180.512820512822,4170.256410256412,4346.153846153848,4186.153846153848,4167.692307692309,4178.97435897436,4167.692307692309,4206.153846153848,4231.282051282053,4189.23076923077,0.0,2027.0,2014.0,0.0,0.0,4.0,4.0,4.0,4.0,0.0,4.0,4.0,4.0,4.0,2.0,4.0,4.0,4.0,4.0,4.0,4.0
44.0,0.0,4174.3589743589755,4231.282051282053,4170.769230769232,4240.512820512822,4176.923076923078,4169.23076923077,4187.179487179489,4172.307692307694,4159.487179487181,4175.384615384617,4157.94871794872,4208.20512820513,4227.692307692309,4187.692307692309,0.0,2025.0,2015.0,0.0,0.0,4.0,4.0,4.0,4.0,0.0,4.0,4.0,4.0,4.0,2.0,4.0,4.0,4.0,4.0,4.0,4.0
45.0,0.0,4185.128205128207,4240.000000000002,4180.512820512822,4260.000000000002,4182.564102564104,4161.0256410256425,3947.692307692309,4165.128205128207,4159.487179487181,4175.384615384617,4154.3589743589755,4225.641025641027,4234.3589743589755,4197.435897435899,0.0,2023.0,2017.0,0.0,0.0,4.0,4.0,4.0,4.0,0.0,4.0,4.0,4.0,4.0,2.0,4.0,4.0,4.0,4.0,4.0,4.0
46.0,0.0,4182.051282051283,4225.128205128207,4178.97435897436,4235.384615384617,4179.487179487181,4156.410256410258,3857.9487179487196,4174.871794871797,4171.282051282053,4181.0256410256425,4170.256410256412,4215.384615384617,4248.71794871795,4193.333333333335,0.0,2023.0,2020.0,0.0,0.0,4.0,4.0,4.0,4.0,0.0,4.0,4.0,4.0,4.0,2.0,4.0,4.0,4.0,4.0,4.0,4.0
47.0,0.0,4174.3589743589755,4205.128205128207,4172.8205128205145,4189.23076923077,4181.0256410256425,4167.179487179489,3934.8717948717963,4176.923076923078,4169.23076923077,4182.564102564104,4170.769230769232,4201.538461538463,4242.051282051283,4185.641025641027,0.0,2024.0,2024.0,0.0,0.0,4.0,4.0,4.0,4.0,0.0,4.0,4.0,4.0,4.0,2.0,4.0,4.0,4.0,4.0,4.0,4.0
48.0,0.0,4172.8205128205145,4211.794871794873,4173.333333333335,4177.435897435899,4180.512820512822,4164.615384615386,4038.46153846154,4168.20512820513,4160.512820512822,4177.435897435899,4156.410256410258,4212.8205128205145,4226.153846153848,4189.23076923077,0.0,2024.0,2026.0,0.0,0.0,4.0,4.0,4.0,4.0,0.0,4.0,4.0,4.0,4.0,2.0,4.0,4.0,4.0,4.0,4.0,4.0
49.0,0.0,4177.435897435899,4229.743589743592,4175.897435897437,4227.692307692309,4180.512820512822,4158.46153846154,4071.2820512820526,4168.20512820513,4165.128205128207,4173.333333333335,4163.076923076925,4216.410256410258,4233.333333333335,4192.8205128205145,0.0,2025.0,2028.0,0.0,0.0,4.0,4.0,4.0,4.0,0.0,4.0,4.0,4.0,4.0,2.0,4.0,4.0,4.0,4.0,4.0,4.0
50.0,0.0,4174.871794871797,4232.307692307694,4175.897435897437,4258.46153846154,4176.923076923078,4169.23076923077,4010.256410256412,4176.923076923078,4170.256410256412,4177.94871794872,4179.487179487181,4209.743589743592,4248.71794871795,4188.20512820513,0.0,2028.0,2028.0,0.0,0.0,4.0,4.0,4.0,4.0,0.0,4.0,4.0,4.0,4.0,2.0,4.0,4.0,4.0,4.0,4.0,4.0
51.0,0.0,4175.897435897437,4226.666666666668,4176.410256410258,4243.589743589745,4169.743589743592,4169.743589743592,3938.46153846154,4175.384615384617,4166.153846153848,4181.0256410256425,4174.3589743589755,4219.487179487181,4245.641025641027,4193.333333333335,0.0,2029.0,2026.0,0.0,0.0,4.0,4.0,4.0,4.0,0.0,4.0,4.0,4.0,4.0,2.0,4.0,4.0,4.0,4.0,4.0,4.0
52.0,0.0,4180.512820512822,4215.384615384617,4177.435897435899,4227.179487179489,4180.000000000002,4157.94871794872,3901.5384615384633,4166.153846153848,4158.97435897436,4175.897435897437,4157.94871794872,4222.051282051283,4225.641025641027,4197.94871794872,0.0,2030.0,2022.0,0.0,0.0,4.0,4.0,4.0,4.0,0.0,4.0,4.0,4.0,4.0,2.0,4.0,4.0,4.0,4.0,4.0,4.0
53.0,0.0,4165.128205128207,4196.923076923078,4157.94871794872,4209.23076923077,4181.538461538463,4155.384615384617,3880.512820512822,4165.641025641027,4151.282051282053,4170.769230769232,4151.282051282053,4198.97435897436,4212.8205128205145,4174.3589743589755,0.0,2030.0,2021.0,0.0,0.0,4.0,4.0,4.0,4.0,0.0,4.0,4.0,4.0,4.0,2.0,4.0,4.0,4.0,4.0,4.0,4.0
54.0,0.0,4137.435897435899,4192.307692307694,4129.743589743592,4184.615384615386,4175.384615384617,4157.94871794872,3988.2051282051298,4159.487179487181,4152.307692307694,4173.333333333335,4149.23076923077,4178.46153846154,4213.333333333335,4151.794871794873,0.0,2033.0,2024.0,0.0,0.0,4.0,4.0,4.0,4.0,0.0,4.0,4.0,4.0,4.0,2.0,4.0,4.0,4.0,4.0,4.0,4.0
55.0,0.0,4145.641025641027,4202.564102564104,4136.410256410258,4180.000000000002,4177.94871794872,4157.94871794872,4149.23076923077,4152.307692307694,4163.589743589745,4178.46153846154,4157.94871794872,4182.051282051283,4221.538461538463,4168.71794871795,0.0,2035.0,2025.0,0.0,0.0,4.0,4.0,4.0,4.0,0.0,4.0,4.0,4.0,4.0,2.0,4.0,4.0,4.0,4.0,4.0,4.0
56.0,0.0,4162.564102564104,4193.846153846155,4149.23076923077,4187.179487179489,4175.897435897437,4153.846153846155,4180.512820512822,4160.512820512822,4162.051282051283,4176.923076923078,4159.487179487181,4186.666666666668,4208.20512820513,4171.282051282053,0.0,2039.0,2030.0,0.0,0.0,4.0,4.0,4.0,4.0,0.0,4.0,4.0,4.0,4.0,2.0,4.0,4.0,4.0,4.0,4.0,4.0
57.0,0.0,4141.0256410256425,4181.538461538463,4133.333333333335,4196.410256410258,4180.512820512822,4155.384615384617,4148.71794871795,4160.000000000002,4151.282051282053,4175.897435897437,4145.641025641027,4171.794871794873,4182.564102564104,4143.589743589745,0.0,2041.0,2034.0,0.0,0.0,4.0,4.0,4.0,4.0,0.0,4.0,4.0,4.0,4.0,2.0,4.0,4.0,4.0,4.0,4.0,4.0
58.0,0.0,4139.487179487181,4195.897435897437,4133.333333333335,4221.538461538463,4179.487179487181,4160.512820512822,4182.564102564104,4155.897435897437,4156.410256410258,4176.410256410258,4148.71794871795,4174.871794871797,4197.94871794872,4154.871794871797,0.0,2043.0,2036.0,0.0,0.0,4.0,4.0,4.0,4.0,0.0,4.0,4.0,4.0,4.0,2.0,4.0,4.0,4.0,4.0,4.0,4.0
59.0,0.0,4172.307692307694,4223.076923076925,4158.97435897436,4236.410256410258,4173.846153846155,4162.564102564104,4281.0256410256425,4174.871794871797,4168.71794871795,4176.923076923078,4165.641025641027,4200.000000000002,4226.153846153848,4186.666666666668,0.0,2044.0,2035.0,0.0,0.0,4.0,4.0,4.0,4.0,0.0,4.0,4.0,4.0,4.0,2.0,4.0,4.0,4.0,4.0,4.0,4.0
60.0,0.0,4186.153846153848,4232.8205128205145,4168.71794871795,4226.666666666668,4178.46153846154,4162.051282051283,4360.000000000002,4191.794871794873,4172.8205128205145,4179.487179487181,4165.641025641027,4220.512820512822,4225.128205128207,4195.897435897437,0.0,2044.0,2034.0,0.0,0.0,4.0,4.0,4.0,4.0,0.0,4.0,4.0,4.0,4.0,2.0,4.0,4.0,4.0,4.0,4.0,4.0
61.0,0.0,4175.384615384617,4209.23076923077,4166.666666666668,4198.46153846154,4177.94871794872,4161.538461538463,4349.23076923077,4185.641025641027,4175.897435897437,4182.051282051283,4163.589743589745,4226.153846153848,4214.3589743589755,4192.307692307694,0.0,2045.0,2034.0,0.0,0.0,4.0,4.0,4.0,4.0,0.0,4.0,4.0,4.0,4.0,2.0,4.0,4.0,4.0,4.0,4.0,4.0
62.0,0.0,4162.564102564104,4186.153846153848,4162.051282051283,4184.102564102565,4177.94871794872,4167.692307692309,4301.0256410256425,4174.871794871797,4176.410256410258,4181.0256410256425,4173.333333333335,4201.0256410256425,4212.307692307694,4178.46153846154,0.0,2046.0,2035.0,0.0,0.0,4.0,4.0,4.0,4.0,0.0,4.0,4.0,4.0,4.0,2.0,4.0,4.0,4.0,4.0,4.0,4.0
63.0,0.0,4150.769230769232,4200.000000000002,4139.487179487181,4214.871794871797,4176.923076923078,4166.153846153848,4293.846153846155,4168.71794871795,4171.794871794873,4176.923076923078,4174.3589743589755,4167.179487179489,4224.615384615386,4163.076923076925,0.0,2048.0,2038.0,0.0,0.0,4.0,4.0,4.0,4.0,0.0,4.0,4.0,4.0,4.0,2.0,4.0,4.0,4.0,4.0,4.0,4.0
64.0,0.0,4163.076923076925,4223.589743589745,4149.743589743592,4228.20512820513,4176.923076923078,4162.564102564104,4282.051282051283,4168.20512820513,4180.000000000002,4182.051282051283,4179.487179487181,4190.256410256412,4247.692307692309,4180.000000000002,808.0,2049.0,2039.0,0.0,0.0,4.0,4.0,4.0,4.0,0.0,4.0,4.0,4.0,4.0,2.0,4.0,4.0,4.0,4.0,4.0,4.0
65.0,0.0,4193.846153846155,4222.051282051283,4191.794871794873,4202.564102564104,4183.076923076925,4168.20512820513,4263.076923076925,4181.538461538463,4192.8205128205145,4189.23076923077,4194.871794871797,4231.794871794873,4255.897435897437,4205.641025641027,852.0,2050.0,2043.0,0.0,0.0,4.0,4.0,4.0,4.0,0.0,4.0,4.0,4.0,4.0,2.0,4.0,4.0,4.0,4.0,4.0,4.0
66.0,0.0,4171.794871794873,4218.97435897436,4165.128205128207,4198.97435897436,4177.435897435899,4163.076923076925,4283.589743589745,4184.615384615386,4182.051282051283,4183.589743589745,4181.0256410256425,4203.076923076925,4234.3589743589755,4182.564102564104,841.0,2050.0,2046.0,0.0,0.0,4.0,4.0,4.0,4.0,0.0,4.0,4.0,4.0,4.0,2.0,4.0,4.0,4.0,4.0,4.0,4.0
67.0,0.0,4156.410256410258,4233.333333333335,4147.179487179489,4228.20512820513,4177.94871794872,4161.0256410256425,4287.692307692309,4182.564102564104,4176.923076923078,4180.000000000002,4164.102564102565,4195.384615384617,4229.23076923077,4181.0256410256425,829.0,2051.0,2047.0,0.0,0.0,4.0,4.0,4.0,4.0,0.0,4.0,4.0,4.0,4.0,2.0,4.0,4.0,4.0,4.0,4.0,4.0
68.0,0.0,4192.307692307694,4221.0256410256425,4192.8205128205145,4226.153846153848,4180.512820512822,4167.179487179489,4266.666666666668,4193.846153846155,4189.23076923077,4182.564102564104,4175.384615384617,4245.128205128207,4244.102564102565,4215.897435897437,0.0,2051.0,2050.0,0.0,0.0,4.0,4.0,4.0,4.0,0.0,4.0,4.0,4.0,4.0,2.0,4.0,4.0,4.0,4.0,4.0,4.0
69.0,0.0,4181.538461538463,4207.179487179489,4176.923076923078,4192.307692307694,4176.410256410258,4167.179487179489,4280.000000000002,4188.71794871795,4186.153846153848,4185.128205128207,4183.076923076925,4216.410256410258,4237.435897435899,4191.794871794873,630.0,2051.0,2054.0,0.0,0.0,4.0,4.0,4.0,4.0,0.0,4.0,4.0,4.0,4.0,2.0,4.0,4.0,4.0,4.0,4.0,4.0
70.0,0.0,4142.051282051283,4223.589743589745,4125.128205128207,4183.589743589745,4180.512820512822,4166.153846153848,4311.794871794873,4170.769230769232,4183.076923076925,4184.615384615386,4181.538461538463,4153.846153846155,4232.8205128205145,4156.410256410258,784.0,2051.0,2055.0,0.0,0.0,4.0,4.0,4.0,4.0,0.0,4.0,4.0,4.0,4.0,2.0,4.0,4.0,4.0,4.0,4.0,4.0
71.0,0.0,4189.743589743592,4230.769230769232,4180.512820512822,4208.20512820513,4178.97435897436,4167.692307692309,4308.71794871795,4187.179487179489,4193.846153846155,4184.615384615386,4180.512820512822,4224.615384615386,4255.384615384617,4206.153846153848,865.0,2053.0,2054.0,0.0,0.0,4.0,4.0,4.0,4.0,0.0,4.0,4.0,4.0,4.0,2.0,4.0,4.0,4.0,4.0,4.0,4.0
72.0,0.0,4236.923076923078,4231.282051282053,4239.487179487181,4224.615384615386,4179.487179487181,4170.769230769232,4259.487179487181,4212.307692307694,4194.3589743589755,4187.179487179489,4176.923076923078,4300.512820512822,4251.794871794873,4247.692307692309,763.0,2052.0,2054.0,0.0,0.0,4.0,4.0,4.0,4.0,0.0,4.0,4.0,4.0,4.0,2.0,4.0,4.0,4.0,4.0,4.0,4.0
73.0,0.0,4163.076923076925,4234.871794871797,4156.410256410258,4192.307692307694,4179.487179487181,4162.564102564104,4217.94871794872,4195.384615384617,4187.692307692309,4185.128205128207,4177.94871794872,4209.743589743592,4222.564102564104,4181.538461538463,179.0,2052.0,2053.0,0.0,0.0,4.0,4.0,4.0,4.0,0.0,4.0,4.0,4.0,4.0,2.0,4.0,4.0,4.0,4.0,4.0,4.0
74.0,0.0,4115.897435897437,4227.692307692309,4099.487179487181,4180.512820512822,4175.384615384617,4157.94871794872,4241.538461538463,4175.897435897437,4193.333333333335,4184.102564102565,4188.20512820513,4141.538461538463,4238.46153846154,4145.641025641027,858.0,2049.0,2055.0,0.0,0.0,4.0,4.0,4.0,4.0,0.0,4.0,4.0,4.0,4.0,2.0,4.0,4.0,4.0,4.0,4.0,4.0
75.0,0.0,4188.20512820513,4212.8205128205145,4193.333333333335,4189.743589743592,4180.512820512822,4169.23076923077,4275.897435897437,4190.256410256412,4192.8205128205145,4185.641025641027,4180.000000000002,4229.23076923077,4255.897435897437,4208.71794871795,819.0,2050.0,2057.0,0.0,0.0,4.0,4.0,4.0,4.0,0.0,4.0,4.0,4.0,4.0,2.0,4.0,4.0,4.0,4.0,4.0,4.0
76.0,0.0,4214.3589743589755,4216.923076923078,4232.307692307694,4155.897435897437,4177.94871794872,4167.692307692309,4244.102564102565,4194.871794871797,4186.153846153848,4183.589743589745,4166.153846153848,4268.20512820513,4237.94871794872,4222.051282051283,835.0,2046.0,2059.0,0.0,0.0,4.0,4.0,4.0,4.0,0.0,4.0,4.0,4.0,4.0,2.0,4.0,4.0,4.0,4.0,4.0,4.0
77.0,0.0,4157.435897435899,4241.0256410256425,4151.282051282053,4167.179487179489,4173.846153846155,4157.94871794872,4213.333333333335,4172.307692307694,4201.538461538463,4185.128205128207,4185.128205128207,4196.923076923078,4248.71794871795,4174.871794871797,841.0,2045.0,2058.0,0.0,0.0,4.0,4.0,4.0,4.0,0.0,4.0,4.0,4.0,4.0,2.0,4.0,4.0,4.0,4.0,4.0,4.0
78.0,0.0,4162.051282051283,4241.0256410256425,4143.076923076925,4223.589743589745,4175.384615384617,4163.076923076925,4247.179487179489,4174.871794871797,4207.692307692309,4191.282051282053,4202.564102564104,4192.8205128205145,4274.3589743589755,4184.102564102565,858.0,2041.0,2051.0,0.0,0.0,4.0,4.0,4.0,4.0,0.0,4.0,4.0,4.0,4.0,2.0,4.0,4.0,4.0,4.0,4.0,4.0
79.0,0.0,4217.435897435899,4212.307692307694,4220.000000000002,4184.615384615386,4176.410256410258,4169.743589743592,4251.282051282053,4206.153846153848,4195.384615384617,4191.282051282053,4189.743589743592,4254.871794871797,4262.564102564104,4228.20512820513,819.0,2041.0,2044.0,0.0,0.0,4.0,4.0,4.0,4.0,0.0,4.0,4.0,4.0,4.0,2.0,4.0,4.0,4.0,4.0,4.0,4.0
80.0,0.0,4211.282051282053,4215.897435897437,4220.512820512822,4151.282051282053,4182.564102564104,4165.641025641027,4183.076923076925,4213.333333333335,4203.589743589745,4187.692307692309,4184.102564102565,4255.384615384617,4233.846153846155,4225.128205128207,835.0,2039.0,2034.0,0.0,0.0,4.0,4.0,4.0,4.0,0.0,4.0,4.0,4.0,4.0,2.0,4.0,4.0,4.0,4.0,4.0,4.0
81.0,0.0,4176.410256410258,4227.179487179489,4163.076923076925,4209.23076923077,4175.897435897437,4163.076923076925,4124.615384615386,4197.94871794872,4211.794871794873,4187.179487179489,4193.333333333335,4223.076923076925,4233.333333333335,4198.46153846154,841.0,2036.0,2036.0,0.0,0.0,4.0,4.0,4.0,4.0,0.0,4.0,4.0,4.0,4.0,2.0,4.0,4.0,4.0,4.0,4.0,4.0
82.0,0.0,4170.256410256412,4197.435897435899,4165.128205128207,4162.564102564104,4175.384615384617,4167.692307692309,4104.615384615386,4189.743589743592,4186.666666666668,4186.666666666668,4183.076923076925,4212.8205128205145,4244.615384615386,4189.23076923077,858.0,2035.0,2039.0,0.0,0.0,4.0,4.0,4.0,4.0,0.0,4.0,4.0,4.0,4.0,2.0,4.0,4.0,4.0,4.0,4.0,4.0
83.0,0.0,4160.000000000002,4208.20512820513,4174.871794871797,4088.71794871795,4183.589743589745,4166.666666666668,4104.615384615386,4176.923076923078,4173.333333333335,4184.615384615386,4171.282051282053,4196.410256410258,4237.94871794872,4180.512820512822,819.0,2038.0,2046.0,0.0,0.0,4.0,4.0,4.0,4.0,0.0,4.0,4.0,4.0,4.0,2.0,4.0,4.0,4.0,4.0,4.0,4.0
84.0,0.0,4131.794871794873,4262.051282051283,4133.333333333335,4157.94871794872,4180.000000000002,4162.051282051283,4120.000000000002,4155.384615384617,4189.743589743592,4184.102564102565,4178.46153846154,4161.0256410256425,4221.0256410256425,4161.0256410256425,835.0,2038.0,2048.0,0.0,0.0,4.0,4.0,4.0,4.0,0.0,4.0,4.0,4.0,4.0,2.0,4.0,4.0,4.0,4.0,4.0,4.0
85.0,0.0,4136.410256410258,4284.102564102565,4120.512820512822,4226.153846153848,4182.564102564104,4163.076923076925,4178.46153846154,4138.46153846154,4189.743589743592,4183.589743589745,4177.94871794872,4147.692307692309,4223.076923076925,4163.589743589745,841.0,2040.0,2050.0,0.0,0.0,4.0,4.0,4.0,4.0,0.0,4.0,4.0,4.0,4.0,2.0,4.0,4.0,4.0,4.0,4.0,4.0
86.0,0.0,4212.8205128205145,4303.076923076925,4181.0256410256425,4206.153846153848,4176.923076923078,4170.256410256412,4251.794871794873,4161.0256410256425,4194.3589743589755,4189.23076923077,4187.179487179489,4213.846153846155,4254.871794871797,4228.71794871795,858.0,2041.0,2049.0,0.0,0.0,4.0,4.0,4.0,4.0,0.0,4.0,4.0,4.0,4.0,2.0,4.0,4.0,4.0,4.0,4.0,4.0
87.0,0.0,4290.769230769232,4335.384615384617,4241.0256410256425,4171.282051282053,4170.256410256412,4184.615384615386,4265.128205128207,4214.871794871797,4229.743589743592,4198.97435897436,4229.23076923077,4298.97435897436,4291.282051282053,4306.153846153848,819.0,2042.0,2046.0,0.0,0.0,4.0,4.0,4.0,4.0,0.0,4.0,4.0,4.0,4.0,2.0,4.0,4.0,4.0,4.0,4.0,4.0
88.0,0.0,4285.128205128207,4353.333333333335,4235.384615384617,4178.46153846154,4181.0256410256425,4182.564102564104,4300.000000000002,4212.307692307694,4238.46153846154,4200.000000000002,4238.46153846154,4282.564102564104,4320.000000000002,4315.897435897437,835.0,2042.0,2045.0,0.0,0.0,4.0,4.0,4.0,4.0,0.0,4.0,4.0,4.0,4.0,2.0,4.0,4.0,4.0,4.0,4.0,4.0
89.0,0.0,4260.512820512822,4370.769230769232,4209.23076923077,4216.923076923078,4184.615384615386,4162.051282051283,4426.153846153848,4161.538461538463,4202.564102564104,4190.769230769232,4197.94871794872,4232.8205128205145,4318.97435897436,4298.46153846154,841.0,2045.0,2050.0,0.0,0.0,4.0,4.0,4.0,4.0,0.0,4.0,4.0,4.0,4.0,2.0,4.0,4.0,4.0,4.0,4.0,4.0
90.0,0.0,4313.846153846155,4399.487179487181,4235.897435897437,4235.897435897437,4178.97435897436,4160.000000000002,4491.282051282053,4154.871794871797,4198.97435897436,4189.23076923077,4202.564102564104,4264.102564102565,4329.743589743592,4347.692307692309,858.0,2047.0,2052.0,0.0,0.0,4.0,4.0,4.0,4.0,0.0,4.0,4.0,4.0,4.0,2.0,4.0,4.0,4.0,4.0,4.0,4.0
91.0,0.0,4377.435897435899,4423.589743589745,4269.23076923077,4222.051282051283,4171.794871794873,4170.769230769232,4425.128205128207,4185.641025641027,4228.71794871795,4197.435897435899,4244.102564102565,4320.000000000002,4381.0256410256425,4412.8205128205145,819.0,2047.0,2053.0,0.0,0.0,4.0,4.0,4.0,4.0,0.0,4.0,4.0,4.0,4.0,2.0,4.0,4.0,4.0,4.0,4.0,4.0
92.0,0.0,4384.615384615386,4454.3589743589755,4270.256410256412,4247.179487179489,4174.871794871797,4178.46153846154,4418.46153846154,4190.769230769232,4236.410256410258,4202.051282051283,4246.153846153848,4325.128205128207,4397.435897435899,4424.102564102565,835.0,2049.0,2051.0,0.0,0.0,4.0,4.0,4.0,4.0,0.0,4.0,4.0,4.0,4.0,2.0,4.0,4.0,4.0,4.0,4.0,4.0
93.0,0.0,4387.179487179488,4477.94871794872,4278.97435897436,4281.0256410256425,4184.615384615386,4182.564102564104,4485.128205128207,4184.102564102565,4237.94871794872,4203.076923076925,4240.000000000002,4314.3589743589755,4380.000000000002,4427.692307692309,841.0,2048.0,2045.0,0.0,0.0,4.0,4.0,4.0,4.0,0.0,4.0,4.0,4.0,4.0,2.0,4.0,4.0,4.0,4.0,4.0,4.0
94.0,0.0,4401.538461538463,4485.128205128207,4288.71794871795,4275.384615384617,4178.97435897436,4177.435897435899,4450.769230769232,4186.153846153848,4243.076923076925,4201.538461538463,4247.179487179489,4316.923076923078,4388.20512820513,4439.487179487181,858.0,2048.0,2031.0,0.0,0.0,4.0,4.0,4.0,4.0,0.0,4.0,4.0,4.0,4.0,2.0,4.0,4.0,4.0,4.0,4.0,4.0
95.0,0.0,4410.769230769232,4486.153846153848,4294.871794871797,4281.538461538463,4176.410256410258,4172.8205128205145,4353.846153846155,4183.589743589745,4234.871794871797,4201.0256410256425,4238.97435897436,4327.179487179489,4390.256410256412,4435.897435897437,819.0,2043.0,2019.0,0.0,0.0,4.0,4.0,4.0,4.0,0.0,4.0,4.0,4.0,4.0,2.0,4.0,4.0,4.0,4.0,4.0,4.0
96.0,0.0,4395.897435897437,4463.076923076925,4287.179487179489,4276.923076923078,4177.435897435899,4172.8205128205145,4311.282051282053,4170.769230769232,4218.97435897436,4200.000000000002,4223.076923076925,4318.97435897436,4366.153846153848,4417.435897435899,835.0,2040.0,2019.0,0.0,0.0,4.0,4.0,4.0,4.0,0.0,4.0,4.0,4.0,4.0,2.0,4.0,4.0,4.0,4.0,4.0,4.0
97.0,0.0,4370.769230769232,4446.153846153848,4266.666666666668,4254.871794871797,4175.384615384617,4170.769230769232,4310.256410256412,4163.589743589745,4214.3589743589755,4193.846153846155,4221.0256410256425,4294.871794871797,4372.307692307694,4402.051282051283,841.0,2040.0,2023.0,0.0,0.0,4.0,4.0,4.0,4.0,0.0,4.0,4.0,4.0,4.0,2.0,4.0,4.0,4.0,4.0,4.0,4.0
98.0,0.0,4368.20512820513,4449.743589743592,4274.871794871797,4253.846153846155,4180.000000000002,4174.3589743589755,4303.589743589745,4181.0256410256425,4220.000000000002,4195.897435897437,4227.692307692309,4305.128205128207,4377.94871794872,4398.46153846154,858.0,2041.0,2037.0,0.0,0.0,4.0,4.0,4.0,4.0,0.0,4.0,4.0,4.0,4.0,2.0,4.0,4.0,4.0,4.0,4.0,4.0
99.0,0.0,4356.410256410258,4442.564102564104,4283.076923076925,4256.410256410258,4178.46153846154,4181.0256410256425,4267.179487179489,4187.179487179489,4218.97435897436,4197.94871794872,4223.076923076925,4308.71794871795,4345.128205128207,4375.897435897437,819.0,2042.0,2042.0,0.0,0.0,4.0,4.0,4.0,4.0,0.0,4.0,4.0,4.0,4.0,2.0,4.0,4.0,4.0,4.0,4.0,4.0
100.0,0.0,4346.666666666668,4430.769230769232,4290.769230769232,4258.97435897436,4178.97435897436,4185.641025641027,4231.282051282053,4179.487179487181,4216.923076923078,4194.3589743589755,4211.282051282053,4308.20512820513,4332.307692307694,4367.692307692309,835.0,2043.0,2043.0,0.0,0.0,4.0,4.0,4.0,4.0,0.0,4.0,4.0,4.0,4.0,2.0,4.0,4.0,4.0,4.0,4.0,4.0
101.0,0.0,4344.615384615386,4407.692307692309,4285.641025641027,4240.512820512822,4177.94871794872,4184.615384615386,4222.051282051283,4195.384615384617,4216.923076923078,4194.3589743589755,4205.641025641027,4320.000000000002,4339.487179487181,4367.692307692309,841.0,2042.0,2039.0,0.0,0.0,4.0,4.0,4.0,4.0,0.0,4.0,4.0,4.0,4.0,2.0,4.0,4.0,4.0,4.0,4.0,4.0
102.0,0.0,4292.8205128205145,4375.384615384617,4215.897435897437,4206.153846153848,4171.794871794873,4175.897435897437,4215.897435897437,4191.794871794873,4209.743589743592,4192.8205128205145,4203.589743589745,4267.179487179489,4324.615384615386,4311.794871794873,858.0,2040.0,2032.0,0.0,0.0,4.0,4.0,4.0,4.0,0.0,4.0,4.0,4.0,4.0,2.0,4.0,4.0,4.0,4.0,4.0,4.0
103.0,0.0,4250.769230769232,4372.307692307694,4183.589743589745,4230.256410256412,4177.435897435899,4168.20512820513,4240.000000000002,4164.102564102565,4208.71794871795,4190.769230769232,4209.23076923077,4214.3589743589755,4325.641025641027,4265.641025641027,819.0,2039.0,2029.0,0.0,0.0,4.0,4.0,4.0,4.0,0.0,4.0,4.0,4.0,4.0,2.0,4.0,4.0,4.0,4.0,4.0,4.0
104.0,0.0,4280.000000000002,4373.846153846155,4264.102564102565,4278.97435897436,4180.512820512822,4170.256410256412,4306.666666666668,4185.641025641027,4218.46153846154,4192.307692307694,4211.282051282053,4271.282051282053,4337.94871794872,4295.897435897437,835.0,2039.0,2029.0,0.0,0.0,4.0,4.0,4.0,4.0,0.0,4.0,4.0,4.0,4.0,2.0,4.0,4.0,4.0,4.0,4.0,4.0
105.0,0.0,4269.23076923077,4332.307692307694,4288.71794871795,4240.000000000002,4183.076923076925,4179.487179487181,4325.641025641027,4212.8205128205145,4213.333333333335,4191.794871794873,4193.846153846155,4293.846153846155,4299.487179487181,4289.23076923077,841.0,2039.0,2037.0,0.0,0.0,4.0,4.0,4.0,4.0,0.0,4.0,4.0,4.0,4.0,2.0,4.0,4.0,4.0,4.0,4.0,4.0
106.0,0.0,4192.8205128205145,4296.410256410258,4187.179487179489,4183.076923076925,4178.97435897436,4177.435897435899,4271.282051282053,4182.051282051283,4194.871794871797,4189.23076923077,4173.846153846155,4211.282051282053,4272.307692307694,4215.384615384617,858.0,2040.0,2043.0,0.0,0.0,4.0,4.0,4.0,4.0,0.0,4.0,4.0,4.0,4.0,2.0,4.0,4.0,4.0,4.0,4.0,4.0
107.0,0.0,4192.307692307694,4299.487179487181,4160.512820512822,4240.000000000002,4168.20512820513,4175.384615384617,4252.307692307694,4178.46153846154,4205.128205128207,4190.256410256412,4188.20512820513,4209.23076923077,4302.564102564104,4211.794871794873,819.0,2041.0,2051.0,0.0,0.0,4.0,4.0,4.0,4.0,0.0,4.0,4.0,4.0,4.0,2.0,4.0,4.0,4.0,4.0,4.0,4.0
108.0,0.0,4229.743589743592,4294.871794871797,4220.000000000002,4277.435897435899,4175.897435897437,4187.179487179489,4282.051282051283,4211.282051282053,4231.282051282053,4196.410256410258,4212.307692307694,4257.435897435899,4302.564102564104,4246.153846153848,835.0,2043.0,2053.0,0.0,0.0,4.0,4.0,4.0,4.0,0.0,4.0,4.0,4.0,4.0,2.0,4.0,4.0,4.0,4.0,4.0,4.0
109.0,0.0,4180.000000000002,4265.128205128207,4199.487179487181,4175.384615384617,4181.0256410256425,4185.128205128207,4276.923076923078,4187.692307692309,4208.71794871795,4193.333333333335,4188.20512820513,4199.487179487181,4269.743589743592,4200.512820512822,841.0,2042.0,2054.0,0.0,0.0,4.0,4.0,4.0,4.0,0.0,4.0,4.0,4.0,4.0,2.0,4.0,4.0,4.0,4.0,4.0,4.0
110.0,0.0,4151.794871794873,4252.307692307694,4181.538461538463,4124.102564102565,4182.051282051283,4178.97435897436,4277.435897435899,4170.256410256412,4174.871794871797,4186.153846153848,4152.8205128205145,4183.589743589745,4256.923076923078,4180.000000000002,858.0,2044.0,2053.0,0.0,0.0,4.0,4.0,4.0,4.0,0.0,4.0,4.0,4.0,4.0,2.0,4.0,4.0,4.0,4.0,4.0,4.0
111.0,0.0,4181.0256410256425,4251.282051282053,4213.333333333335,4206.153846153848,4183.076923076925,4183.589743589745,4325.641025641027,4213.846153846155,4188.20512820513,4183.589743589745,4157.435897435899,4242.564102564104,4242.564102564104,4208.20512820513,819.0,2044.0,2058.0,0.0,0.0,4.0,4.0,4.0,4.0,0.0,4.0,4.0,4.0,4.0,2.0,4.0,4.0,4.0,4.0,4.0,4.0
112.0,0.0,4147.179487179489,4229.743589743592,4169.743589743592,4231.282051282053,4177.435897435899,4177.435897435899,4347.179487179488,4214.871794871797,4199.487179487181,4184.102564102565,4171.282051282053,4191.282051282053,4227.179487179489,4162.051282051283,835.0,2045.0,2059.0,0.0,0.0,4.0,4.0,4.0,4.0,0.0,4.0,4.0,4.0,4.0,2.0,4.0,4.0,4.0,4.0,4.0,4.0
113.0,0.0,4133.333333333335,4212.8205128205145,4151.282051282053,4139.487179487181,4179.487179487181,4174.3589743589755,4325.641025641027,4186.153846153848,4191.794871794873,4188.71794871795,4174.871794871797,4149.23076923077,4243.589743589745,4134.3589743589755,841.0,2046.0,2062.0,0.0,0.0,4.0,4.0,4.0,4.0,0.0,4.0,4.0,4.0,4.0,2.0,4.0,4.0,4.0,4.0,4.0,4.0
114.0,0.0,4188.71794871795,4221.538461538463,4218.97435897436,4103.076923076925,4181.0256410256425,4182.564102564104,4301.538461538463,4206.153846153848,4200.000000000002,4192.307692307694,4177.435897435899,4230.256410256412,4258.97435897436,4194.871794871797,858.0,2046.0,2060.0,0.0,0.0,4.0,4.0,4.0,4.0,0.0,4.0,4.0,4.0,4.0,2.0,4.0,4.0,4.0,4.0,4.0,4.0
115.0,0.0,4170.256410256412,4221.0256410256425,4208.71794871795,4167.692307692309,4185.641025641027,4183.076923076925,4290.769230769232,4218.97435897436,4208.71794871795,4191.794871794873,4182.051282051283,4228.20512820513,4239.487179487181,4195.384615384617,819.0,2046.0,2055.0,0.0,0.0,4.0,4.0,4.0,4.0,0.0,4.0,4.0,4.0,4.0,2.0,4.0,4.0,4.0,4.0,4.0,4.0
116.0,0.0,4104.615384615386,4199.487179487181,4131.794871794873,4206.153846153848,4187.692307692309,4175.384615384617,4276.410256410258,4184.102564102565,4196.923076923078,4186.153846153848,4180.000000000002,4135.897435897437,4228.71794871795,4130.769230769232,835.0,2045.0,2052.0,0.0,0.0,4.0,4.0,4.0,4.0,0.0,4.0,4.0,4.0,4.0,2.0,4.0,4.0,4.0,4.0,4.0,4.0
117.0,0.0,4121.538461538463,4194.3589743589755,4137.435897435899,4178.97435897436,4181.0256410256425,4171.794871794873,4261.538461538463,4173.333333333335,4189.743589743592,4182.051282051283,4176.410256410258,4148.20512820513,4245.128205128207,4135.897435897437,841.0,2045.0,2050.0,0.0,0.0,4.0,4.0,4.0,4.0,0.0,4.0,4.0,4.0,4.0,2.0,4.0,4.0,4.0,4.0,4.0,4.0
118.0,0.0,4158.46153846154,4206.153846153848,4182.051282051283,4157.94871794872,4186.153846153848,4175.897435897437,4317.94871794872,4200.512820512822,4193.333333333335,4185.641025641027,4172.8205128205145,4213.333333333335,4227.692307692309,4174.3589743589755,858.0,2048.0,2053.0,0.0,0.0,4.0,4.0,4.0,4.0,0.0,4.0,4.0,4.0,4.0,2.0,4.0,4.0,4.0,4.0,4.0,4.0
119.0,0.0,4113.846153846155,4214.871794871797,4140.000000000002,4183.076923076925,4183.076923076925,4174.871794871797,4427.692307692309,4191.794871794873,4193.333333333335,4190.769230769232,4173.846153846155,4167.692307692309,4190.769230769232,4133.333333333335,819.0,2048.0,2054.0,0.0,0.0,4.0,4.0,4.0,4.0,0.0,4.0,4.0,4.0,4.0,2.0,4.0,4.0,4.0,4.0,4.0,4.0
120.0,0.0,4092.8205128205145,4235.897435897437,4115.384615384617,4209.23076923077,4180.512820512822,4175.384615384617,4452.8205128205145,4153.846153846155,4197.435897435899,4189.23076923077,4185.128205128207,4116.410256410258,4205.641025641027,4103.589743589745,835.0,2048.0,2055.0,0.0,0.0,4.0,4.0,4.0,4.0,0.0,4.0,4.0,4.0,4.0,2.0,4.0,4.0,4.0,4.0,4.0,4.0
121.0,0.0,4187.179487179489,4230.769230769232,4220.000000000002,4181.0256410256425,4186.153846153848,4188.20512820513,4440.000000000002,4183.076923076925,4212.307692307694,4191.794871794873,4194.3589743589755,4221.538461538463,4233.846153846155,4190.769230769232,841.0,2047.0,2056.0,0.0,0.0,4.0,4.0,4.0,4.0,0.0,4.0,4.0,4.0,4.0,2.0,4.0,4.0,4.0,4.0,4.0,4.0
122.0,0.0,4232.8205128205145,4180.512820512822,4267.692307692309,4104.102564102565,4180.512820512822,4191.794871794873,4418.46153846154,4232.8205128205145,4214.3589743589755,4193.846153846155,4188.71794871795,4305.128205128207,4206.666666666668,4245.641025641027,858.0,2048.0,2054.0,0.0,0.0,4.0,4.0,4.0,4.0,0.0,4.0,4.0,4.0,4.0,2.0,4.0,4.0,4.0,4.0,4.0,4.0
123.0,0.0,4134.871794871797,4178.46153846154,4155.897435897437,4106.153846153848,4184.102564102565,4177.94871794872,4303.589743589745,4185.641025641027,4202.564102564104,4188.71794871795,4189.23076923077,4182.564102564104,4187.692307692309,4154.3589743589755,819.0,2048.0,2052.0,0.0,0.0,4.0,4.0,4.0,4.0,0.0,4.0,4.0,4.0,4.0,2.0,4.0,4.0,4.0,4.0,4.0,4.0
124.0,0.0,4094.358974358976,4252.8205128205145,4111.794871794873,4195.897435897437,4186.666666666668,4173.333333333335,4244.615384615386,4142.051282051283,4198.97435897436,4188.71794871795,4191.794871794873,4106.153846153848,4211.794871794873,4108.20512820513,835.0,2047.0,2053.0,0.0,0.0,4.0,4.0,4.0,4.0,0.0,4.0,4.0,4.0,4.0,2.0,4.0,4.0,4.0,4.0,4.0,4.0
125.0,0.0,4180.512820512822,4245.128205128207,4217.94871794872,4194.3589743589755,4181.0256410256425,4182.564102564104,4321.538461538463,4190.256410256412,4202.564102564104,4191.282051282053,4179.487179487181,4226.153846153848,4215.897435897437,4184.102564102565,841.0,2047.0,2056.0,0.0,0.0,4.0,4.0,4.0,4.0,0.0,4.0,4.0,4.0,4.0,2.0,4.0,4.0,4.0,4.0,4.0,4.0
126.0,0.0,4182.051282051283,4169.743589743592,4223.589743589745,4111.794871794873,4182.564102564104,4177.435897435899,4332.307692307694,4207.179487179489,4202.051282051283,4191.794871794873,4178.97435897436,4249.23076923077,4202.051282051283,4183.589743589745,858.0,2047.0,2056.0,0.0,0.0,4.0,4.0,4.0,4.0,0.0,4.0,4.0,4.0,4.0,2.0,4.0,4.0,4.0,4.0,4.0,4.0
127.0,0.0,4121.0256410256425,4204.615384615386,4140.000000000002,4089.230769230771,4180.512820512822,4168.20512820513,4314.3589743589755,4178.97435897436,4206.666666666668,4191.282051282053,4193.846153846155,4166.666666666668,4209.23076923077,4132.8205128205145,819.0,2048.0,2057.0,0.0,0.0,4.0,4.0,4.0,4.0,0.0,4.0,4.0,4.0,4.0,2.0,4.0,4.0,4.0,4.0,4.0,4.0
128.0,0.0,4163.589743589745,4261.0256410256425,4180.512820512822,4082.564102564104,4183.076923076925,4184.615384615386,4383.589743589745,4197.435897435899,4225.641025641027,4196.923076923078,4206.666666666668,4202.051282051283,4221.538461538463,4171.282051282053,835.0,2048.0,2057.0,0.0,0.0,4.0,4.0,4.0,4.0,0.0,4.0,4.0,4.0,4.0,2.0,4.0,4.0,4.0,4.0,4.0,4.0
0.0,0.0,4196.410256410258,4196.410256410258,4226.666666666668,4085.641025641027,4185.641025641027,4188.20512820513,4350.769230769232,4209.743589743592,4233.333333333335,4197.94871794872,4211.794871794873,4243.076923076925,4213.333333333335,4194.871794871797,806.0,2049.0,2056.0,0.0,0.0,4.0,4.0,4.0,4.0,0.0,4.0,4.0,4.0,4.0,2.0,4.0,4.0,4.0,4.0,4.0,4.0
1.0,0.0,4153.333333333335,4164.615384615386,4175.897435897437,4095.8974358974374,4183.589743589745,4166.153846153848,4224.102564102565,4187.179487179489,4211.794871794873,4191.794871794873,4197.94871794872,4202.564102564104,4201.538461538463,4163.076923076925,851.0,2049.0,2056.0,0.0,0.0,4.0,4.0,4.0,4.0,0.0,4.0,4.0,4.0,4.0,2.0,4.0,4.0,4.0,4.0,4.0,4.0
2.0,0.0,4147.179487179489,4217.94871794872,4163.589743589745,4034.358974358976,4186.153846153848,4162.051282051283,4221.538461538463,4197.435897435899,4202.051282051283,4190.769230769232,4191.282051282053,4189.23076923077,4210.256410256412,4158.97435897436,838.0,2051.0,2056.0,0.0,0.0,4.0,4.0,4.0,4.0,0.0,4.0,4.0,4.0,4.0,2.0,4.0,4.0,4.0,4.0,4.0,4.0
3.0,0.0,4148.20512820513,4202.051282051283,4162.564102564104,4010.256410256412,4182.564102564104,4170.256410256412,4237.94871794872,4205.128205128207,4221.538461538463,4196.410256410258,4213.333333333335,4176.410256410258,4217.94871794872,4147.692307692309,831.0,2051.0,2055.0,0.0,0.0,4.0,4.0,4.0,4.0,0.0,4.0,4.0,4.0,4.0,2.0,4.0,4.0,4.0,4.0,4.0,4.0
4.0,0.0,4102.564102564104,4189.23076923077,4098.97435897436,4129.743589743592,4183.076923076925,4181.0256410256425,4157.94871794872,4179.487179487181,4234.3589743589755,4203.076923076925,4227.692307692309,4136.410256410258,4216.410256410258,4116.923076923078,0.0,2052.0,2052.0,0.0,0.0,4.0,4.0,4.0,4.0,0.0,4.0,4.0,4.0,4.0,2.0,4.0,4.0,4.0,4.0,4.0,4.0
5.0,0.0,4074.8717948717963,4241.0256410256425,4068.2051282051298,4209.743589743592,4186.153846153848,4189.23076923077,4113.333333333335,4165.641025641027,4220.000000000002,4197.94871794872,4210.256410256412,4126.153846153848,4209.23076923077,4107.692307692309,630.0,2050.0,2051.0,0.0,0.0,4.0,4.0,4.0,4.0,0.0,4.0,4.0,4.0,4.0,2.0,4.0,4.0,4.0,4.0,4.0,4.0
6.0,0.0,4120.000000000002,4176.410256410258,4137.94871794872,4140.512820512822,4184.102564102565,4194.871794871797,4161.538461538463,4183.076923076925,4216.923076923078,4194.871794871797,4207.692307692309,4161.538461538463,4196.923076923078,4132.307692307694,783.0,2052.0,2049.0,0.0,0.0,4.0,4.0,4.0,4.0,0.0,4.0,4.0,4.0,4.0,2.0,4.0,4.0,4.0,4.0,4.0,4.0
7.0,0.0,4182.564102564104,4092.3076923076937,4204.615384615386,4111.282051282053,4185.128205128207,4208.71794871795,4195.897435897437,4215.384615384617,4246.666666666668,4207.692307692309,4245.641025641027,4207.179487179489,4211.282051282053,4180.512820512822,856.0,2052.0,2047.0,0.0,0.0,4.0,4.0,4.0,4.0,0.0,4.0,4.0,4.0,4.0,2.0,4.0,4.0,4.0,4.0,4.0,4.0
8.0,0.0,4184.615384615386,4165.128205128207,4183.589743589745,4184.615384615386,4178.97435897436,4215.897435897437,4201.0256410256425,4232.8205128205145,4268.71794871795,4216.923076923078,4271.794871794873,4213.333333333335,4237.94871794872,4196.410256410258,738.0,2052.0,2047.0,0.0,0.0,4.0,4.0,4.0,4.0,0.0,4.0,4.0,4.0,4.0,2.0,4.0,4.0,4.0,4.0,4.0,4.0
9.0,0.0,4155.384615384617,4233.333333333335,4154.871794871797,4234.3589743589755,4178.97435897436,4216.923076923078,4246.153846153848,4223.076923076925,4264.102564102565,4214.871794871797,4263.076923076925,4195.384615384617,4241.0256410256425,4175.897435897437,179.0,2053.0,2045.0,0.0,0.0,4.0,4.0,4.0,4.0,0.0,4.0,4.0,4.0,4.0,2.0,4.0,4.0,4.0,4.0,4.0,4.0
10.0,0.0,4155.897435897437,4188.20512820513,4168.71794871795,4245.641025641027,4183.589743589745,4219.487179487181,4276.923076923078,4212.307692307694,4263.589743589745,4210.769230769232,4260.000000000002,4193.846153846155,4240.512820512822,4166.153846153848,862.0,2052.0,2046.0,0.0,0.0,4.0,4.0,4.0,4.0,0.0,4.0,4.0,4.0,4.0,2.0,4.0,4.0,4.0,4.0,4.0,4.0
11.0,0.0,4186.666666666668,4165.641025641027,4202.051282051283,4272.307692307694,4184.102564102565,4228.20512820513,4244.615384615386,4231.794871794873,4283.589743589745,4214.3589743589755,4284.615384615386,4215.897435897437,4255.897435897437,4185.641025641027,817.0,2052.0,2045.0,0.0,0.0,4.0,4.0,4.0,4.0,0.0,4.0,4.0,4.0,4.0,2.0,4.0,4.0,4.0,4.0,4.0,4.0
12.0,0.0,4199.487179487181,4188.71794871795,4218.46153846154,4301.0256410256425,4188.20512820513,4233.333333333335,4244.102564102565,4252.307692307694,4295.897435897437,4221.0256410256425,4294.3589743589755,4232.8205128205145,4253.846153846155,4197.435897435899,842.0,2052.0,2045.0,0.0,0.0,4.0,4.0,4.0,4.0,0.0,4.0,4.0,4.0,4.0,2.0,4.0,4.0,4.0,4.0,4.0,4.0
13.0,0.0,4188.20512820513,4195.384615384617,4204.102564102565,4297.435897435899,4180.512820512822,4235.384615384617,4287.179487179489,4250.256410256412,4289.23076923077,4220.000000000002,4281.0256410256425,4227.692307692309,4241.538461538463,4190.769230769232,841.0,2052.0,2044.0,0.0,0.0,4.0,4.0,4.0,4.0,0.0,4.0,4.0,4.0,4.0,2.0,4.0,4.0,4.0,4.0,4.0,4.0
14.0,0.0,4187.692307692309,4211.282051282053,4198.97435897436,4306.666666666668,4178.46153846154,4243.076923076925,4267.179487179489,4247.692307692309,4292.8205128205145,4218.46153846154,4287.179487179489,4220.512820512822,4257.94871794872,4197.435897435899,862.0,2051.0,2045.0,0.0,0.0,4.0,4.0,4.0,4.0,0.0,4.0,4.0,4.0,4.0,2.0,4.0,4.0,4.0,4.0,4.0,4.0
15.0,0.0,4202.564102564104,4227.179487179489,4217.94871794872,4321.0256410256425,4185.128205128207,4242.564102564104,4215.897435897437,4245.641025641027,4297.435897435899,4225.641025641027,4298.46153846154,4229.743589743592,4272.8205128205145,4212.8205128205145,817.0,2046.0,2046.0,0.0,0.0,4.0,4.0,4.0,4.0,0.0,4.0,4.0,4.0,4.0,2.0,4.0,4.0,4.0,4.0,4.0,4.0
16.0,0.0,4216.410256410258,4222.051282051283,4234.871794871797,4308.20512820513,4181.538461538463,4235.384615384617,4239.487179487181,4249.23076923077,4290.769230769232,4226.666666666668,4291.282051282053,4252.307692307694,4265.128205128207,4216.923076923078,0.0,2046.0,2045.0,0.0,0.0,4.0,4.0,4.0,4.0,0.0,4.0,4.0,4.0,4.0,2.0,4.0,4.0,4.0,4.0,4.0,4.0
17.0,0.0,4203.076923076925,4231.282051282053,4221.538461538463,4298.46153846154,4185.128205128207,4231.794871794873,4237.94871794872,4248.20512820513,4289.23076923077,4220.000000000002,4284.102564102565,4241.0256410256425,4255.897435897437,4203.076923076925,0.0,2045.0,2044.0,0.0,0.0,4.0,4.0,4.0,4.0,0.0,4.0,4.0,4.0,4.0,2.0,4.0,4.0,4.0,4.0,4.0,4.0
18.0,0.0,4191.282051282053,4249.23076923077,4208.20512820513,4298.97435897436,4185.641025641027,4230.769230769232,4197.94871794872,4241.0256410256425,4297.435897435899,4221.538461538463,4289.743589743592,4223.076923076925,4270.256410256412,4201.0256410256425,0.0,2045.0,2044.0,0.0,0.0,4.0,4.0,4.0,4.0,0.0,4.0,4.0,4.0,4.0,2.0,4.0,4.0,4.0,4.0,4.0,4.0
19.0,0.0,4198.46153846154,4253.333333333335,4214.3589743589755,4303.589743589745,4182.564102564104,4227.179487179489,4242.051282051283,4238.46153846154,4291.282051282053,4225.641025641027,4287.179487179489,4231.794871794873,4277.94871794872,4207.179487179489,0.0,2045.0,2044.0,0.0,0.0,4.0,4.0,4.0,4.0,0.0,4.0,4.0,4.0,4.0,2.0,4.0,4.0,4.0,4.0,4.0,4.0
20.0,0.0,4192.8205128205145,4249.743589743592,4209.23076923077,4302.564102564104,4186.666666666668,4214.3589743589755,4301.538461538463,4233.333333333335,4268.71794871795,4216.923076923078,4263.589743589745,4233.846153846155,4249.743589743592,4193.333333333335,0.0,2043.0,2041.0,0.0,0.0,4.0,4.0,4.0,4.0,0.0,4.0,4.0,4.0,4.0,2.0,4.0,4.0,4.0,4.0,4.0,4.0
21.0,0.0,4179.487179487181,4256.410256410258,4195.384615384617,4281.0256410256425,4184.102564102565,4204.615384615386,4285.641025641027,4225.641025641027,4262.564102564104,4209.743589743592,4255.384615384617,4218.97435897436,4234.3589743589755,4177.435897435899,0.0,2042.0,2039.0,0.0,0.0,4.0,4.0,4.0,4.0,0.0,4.0,4.0,4.0,4.0,2.0,4.0,4.0,4.0,4.0,4.0,4.0
22.0,0.0,4176.923076923078,4261.538461538463,4192.8205128205145,4247.692307692309,4185.128205128207,4211.794871794873,4282.564102564104,4221.0256410256425,4269.743589743592,4216.923076923078,4263.076923076925,4205.128205128207,4238.97435897436,4178.97435897436,0.0,2039.0,2034.0,0.0,0.0,4.0,4.0,4.0,4.0,0.0,4.0,4.0,4.0,4.0,2.0,4.0,4.0,4.0,4.0,4.0,4.0
23.0,0.0,4170.256410256412,4257.94871794872,4181.538461538463,4231.794871794873,4182.051282051283,4207.692307692309,4304.615384615386,4208.71794871795,4254.871794871797,4216.923076923078,4248.71794871795,4197.435897435899,4230.256410256412,4176.923076923078,0.0,2038.0,2033.0,0.0,0.0,4.0,4.0,4.0,4.0,0.0,4.0,4.0,4.0,4.0,2.0,4.0,4.0,4.0,4.0,4.0,4.0
24.0,0.0,4167.692307692309,4259.487179487181,4182.564102564104,4227.179487179489,4181.0256410256425,4189.23076923077,4309.743589743592,4195.384615384617,4237.94871794872,4206.153846153848,4232.307692307694,4203.076923076925,4222.051282051283,4172.8205128205145,0.0,2036.0,2035.0,0.0,0.0,4.0,4.0,4.0,4.0,0.0,4.0,4.0,4.0,4.0,2.0,4.0,4.0,4.0,4.0,4.0,4.0
25.0,0.0,4176.923076923078,4265.641025641027,4197.435897435899,4216.410256410258,4186.153846153848,4186.153846153848,4338.46153846154,4200.512820512822,4246.153846153848,4206.666666666668,4235.897435897437,4210.256410256412,4230.769230769232,4175.897435897437,0.0,2036.0,2037.0,0.0,0.0,4.0,4.0,4.0,4.0,0.0,4.0,4.0,4.0,4.0,2.0,4.0,4.0,4.0,4.0,4.0,4.0
26.0,0.0,4167.692307692309,4263.589743589745,4177.94871794872,4214.871794871797,4181.538461538463,4189.23076923077,4380.000000000002,4196.410256410258,4244.102564102565,4211.282051282053,4229.743589743592,4194.871794871797,4227.692307692309,4165.128205128207,0.0,2037.0,2043.0,0.0,0.0,4.0,4.0,4.0,4.0,0.0,4.0,4.0,4.0,4.0,2.0,4.0,4.0,4.0,4.0,4.0,4.0
27.0,0.0,4175.384615384617,4254.871794871797,4190.769230769232,4222.051282051283,4185.641025641027,4190.256410256412,4417.94871794872,4191.282051282053,4234.871794871797,4207.179487179489,4222.051282051283,4205.641025641027,4215.897435897437,4181.0256410256425,0.0,2038.0,2042.0,0.0,0.0,4.0,4.0,4.0,4.0,0.0,4.0,4.0,4.0,4.0,2.0,4.0,4.0,4.0,4.0,4.0,4.0
28.0,0.0,4181.0256410256425,4245.128205128207,4203.076923076925,4215.897435897437,4190.256410256412,4183.589743589745,4435.384615384617,4201.0256410256425,4235.384615384617,4201.538461538463,4218.46153846154,4218.97435897436,4209.743589743592,4190.256410256412,0.0,2038.0,2041.0,0.0,0.0,4.0,4.0,4.0,4.0,0.0,4.0,4.0,4.0,4.0,2.0,4.0,4.0,4.0,4.0,4.0,4.0
29.0,0.0,4130.769230769232,4250.256410256412,4134.3589743589755,4212.307692307694,4185.128205128207,4172.8205128205145,4377.94871794872,4180.000000000002,4220.512820512822,4198.46153846154,4198.46153846154,4156.923076923078,4201.538461538463,4136.410256410258,0.0,2039.0,2039.0,0.0,0.0,4.0,4.0,4.0,4.0,0.0,4.0,4.0,4.0,4.0,2.0,4.0,4.0,4.0,4.0,4.0,4.0
30.0,0.0,4116.923076923078,4266.666666666668,4116.923076923078,4220.512820512822,4186.666666666668,4175.897435897437,4323.589743589745,4156.923076923078,4211.794871794873,4195.897435897437,4195.384615384617,4127.179487179489,4216.410256410258,4123.589743589745,0.0,2040.0,2038.0,0.0,0.0,4.0,4.0,4.0,4.0,0.0,4.0,4.0,4.0,4.0,2.0,4.0,4.0,4.0,4.0,4.0,4.0
