COUNTER,INTERPOLATED,AF3,F7,F3,FC5,T7,P7,O1,O2,P8,T8,FC6,F4,F8,AF4,RAW_CQ,GYROX,GYROY,MARKER,SYNC,CQ_AF3,CQ_F7,CQ_F3,CQ_FC5,CQ_T7,CQ_P7,CQ_O1,CQ_O2,CQ_P8,CQ_T8,CQ_FC6,CQ_F4,CQ_F8,CQ_AF4,CQ_CMS,CQ_DRL
118.0,0.0,4193.846153846155,4193.333333333335,4185.641025641027,4197.435897435899,4182.564102564104,4195.897435897437,4094.358974358976,4187.692307692309,4212.8205128205145,4205.641025641027,4203.076923076925,4214.871794871797,4296.923076923078,4201.0256410256425,859.0,2045.0,2042.0,0.0,0.0,0.0,0.0,0.0,0.0,0.0,0.0,0.0,0.0,0.0,0.0,0.0,0.0,0.0,0.0,0.0,0.0
119.0,0.0,4193.846153846155,4200.512820512822,4180.512820512822,4209.23076923077,4180.000000000002,4194.3589743589755,4105.641025641027,4185.128205128207,4210.769230769232,4205.128205128207,4195.897435897437,4210.256410256412,4288.71794871795,4195.897435897437,826.0,2045.0,2045.0,0.0,0.0,0.0,0.0,0.0,0.0,0.0,0.0,0.0,0.0,0.0,0.0,0.0,0.0,0.0,0.0,0.0,0.0
120.0,0.0,4189.23076923077,4203.589743589745,4180.512820512822,4216.410256410258,4183.589743589745,4193.846153846155,4122.051282051283,4184.615384615386,4209.743589743592,4208.71794871795,4199.487179487181,4216.410256410258,4293.846153846155,4200.512820512822,833.0,2046.0,2047.0,0.0,0.0,0.0,0.0,0.0,0.0,0.0,0.0,0.0,0.0,0.0,0.0,0.0,0.0,0.0,0.0,0.0,0.0
121.0,0.0,4196.410256410258,4198.97435897436,4192.8205128205145,4209.23076923077,4183.589743589745,4194.871794871797,4116.410256410258,4192.8205128205145,4215.897435897437,4207.692307692309,4208.20512820513,4226.153846153848,4295.897435897437,4211.794871794873,844.0,2045.0,2049.0,0.0,0.0,0.0,0.0,0.0,0.0,0.0,0.0,0.0,0.0,0.0,0.0,0.0,0.0,0.0,0.0,0.0,0.0
122.0,0.0,4194.3589743589755,4184.615384615386,4193.333333333335,4195.897435897437,4181.0256410256425,4185.641025641027,4111.282051282053,4188.71794871795,4213.333333333335,4202.564102564104,4204.102564102565,4224.615384615386,4287.179487179489,4206.153846153848,859.0,2046.0,2051.0,0.0,0.0,0.0,0.0,0.0,0.0,0.0,0.0,0.0,0.0,0.0,0.0,0.0,0.0,0.0,0.0,0.0,0.0
123.0,0.0,4186.666666666668,4182.564102564104,4189.743589743592,4192.8205128205145,4183.076923076925,4178.46153846154,4143.076923076925,4182.051282051283,4209.743589743592,4206.153846153848,4197.435897435899,4220.512820512822,4286.666666666668,4197.435897435899,826.0,2045.0,2052.0,0.0,0.0,0.0,0.0,0.0,0.0,0.0,0.0,0.0,0.0,0.0,0.0,0.0,0.0,0.0,0.0,0.0,0.0
124.0,0.0,4191.282051282053,4206.153846153848,4193.333333333335,4196.923076923078,4181.0256410256425,4186.153846153848,4164.615384615386,4194.3589743589755,4220.000000000002,4212.307692307694,4207.179487179489,4225.128205128207,4294.3589743589755,4201.0256410256425,833.0,2045.0,2053.0,0.0,0.0,0.0,0.0,0.0,0.0,0.0,0.0,0.0,0.0,0.0,0.0,0.0,0.0,0.0,0.0,0.0,0.0
125.0,0.0,4195.897435897437,4204.615384615386,4197.94871794872,4213.333333333335,4183.076923076925,4194.871794871797,4161.0256410256425,4203.076923076925,4225.128205128207,4209.743589743592,4222.564102564104,4234.3589743589755,4296.923076923078,4209.23076923077,844.0,2047.0,2056.0,0.0,0.0,0.0,0.0,0.0,0.0,0.0,0.0,0.0,0.0,0.0,0.0,0.0,0.0,0.0,0.0,0.0,0.0
126.0,0.0,4192.8205128205145,4173.333333333335,4196.923076923078,4223.076923076925,4184.615384615386,4186.666666666668,4152.8205128205145,4191.282051282053,4214.871794871797,4206.153846153848,4213.846153846155,4233.333333333335,4294.3589743589755,4210.256410256412,859.0,2048.0,2058.0,0.0,0.0,0.0,0.0,0.0,0.0,0.0,0.0,0.0,0.0,0.0,0.0,0.0,0.0,0.0,0.0,0.0,0.0
127.0,0.0,4196.923076923078,4188.20512820513,4198.46153846154,4206.153846153848,4182.564102564104,4175.897435897437,4135.384615384617,4182.564102564104,4212.8205128205145,4210.256410256412,4201.0256410256425,4227.692307692309,4296.923076923078,4211.794871794873,826.0,2048.0,2058.0,0.0,0.0,0.0,0.0,0.0,0.0,0.0,0.0,0.0,0.0,0.0,0.0,0.0,0.0,0.0,0.0,0.0,0.0
128.0,0.0,4197.435897435899,4218.97435897436,4198.46153846154,4183.589743589745,4184.615384615386,4176.923076923078,4108.20512820513,4185.128205128207,4214.3589743589755,4207.179487179489,4204.102564102565,4224.102564102565,4292.307692307694,4208.20512820513,833.0,2049.0,2059.0,0.0,0.0,0.0,0.0,4.0,0.0,0.0,0.0,0.0,0.0,0.0,0.0,0.0,0.0,0.0,0.0,4.0,4.0
0.0,0.0,4182.564102564104,4203.076923076925,4186.153846153848,4181.538461538463,4184.102564102565,4180.512820512822,4089.230769230771,4178.97435897436,4201.538461538463,4198.46153846154,4198.97435897436,4217.435897435899,4276.923076923078,4194.3589743589755,810.0,2050.0,2058.0,0.0,0.0,0.0,0.0,4.0,0.0,0.0,0.0,0.0,0.0,0.0,0.0,0.0,0.0,0.0,0.0,4.0,4.0
1.0,0.0,4183.076923076925,4191.282051282053,4182.051282051283,4191.282051282053,4185.128205128207,4178.97435897436,4084.102564102566,4170.256410256412,4197.435897435899,4201.0256410256425,4187.179487179489,4214.871794871797,4275.384615384617,4192.8205128205145,846.0,2051.0,2057.0,0.0,0.0,0.0,0.0,4.0,4.0,0.0,0.0,0.0,0.0,0.0,0.0,0.0,0.0,0.0,0.0,4.0,4.0
2.0,0.0,4197.94871794872,4211.282051282053,4190.256410256412,4196.410256410258,4182.564102564104,4173.846153846155,4088.71794871795,4176.923076923078,4210.256410256412,4204.102564102565,4192.307692307694,4217.94871794872,4288.20512820513,4201.538461538463,838.0,2051.0,2058.0,0.0,0.0,4.0,0.0,4.0,4.0,0.0,0.0,0.0,0.0,0.0,0.0,0.0,0.0,0.0,0.0,4.0,4.0
3.0,0.0,4195.384615384617,4217.94871794872,4190.769230769232,4201.538461538463,4178.46153846154,4168.71794871795,4088.71794871795,4183.589743589745,4210.256410256412,4202.564102564104,4200.000000000002,4213.846153846155,4285.641025641027,4197.94871794872,835.0,2050.0,2058.0,0.0,0.0,4.0,4.0,4.0,4.0,0.0,0.0,0.0,0.0,0.0,0.0,0.0,0.0,0.0,0.0,4.0,4.0
4.0,0.0,4187.692307692309,4212.307692307694,4187.692307692309,4197.94871794872,4183.589743589745,4166.153846153848,4081.0256410256425,4180.512820512822,4202.051282051283,4201.538461538463,4197.435897435899,4209.743589743592,4276.410256410258,4194.3589743589755,0.0,2051.0,2057.0,0.0,0.0,4.0,4.0,4.0,4.0,0.0,0.0,0.0,0.0,0.0,0.0,0.0,0.0,0.0,0.0,4.0,4.0
5.0,0.0,4187.692307692309,4216.923076923078,4187.179487179489,4188.71794871795,4183.589743589745,4171.794871794873,4074.8717948717963,4182.564102564104,4204.102564102565,4200.000000000002,4198.46153846154,4213.333333333335,4285.128205128207,4197.435897435899,640.0,2050.0,2058.0,0.0,0.0,4.0,4.0,4.0,4.0,0.0,4.0,0.0,0.0,0.0,0.0,0.0,0.0,0.0,0.0,4.0,4.0
6.0,0.0,4184.615384615386,4218.46153846154,4182.051282051283,4178.97435897436,4180.000000000002,4178.46153846154,4076.9230769230785,4185.641025641027,4208.20512820513,4201.538461538463,4202.051282051283,4209.743589743592,4290.769230769232,4186.666666666668,798.0,2050.0,2055.0,0.0,0.0,4.0,4.0,4.0,4.0,0.0,4.0,4.0,0.0,0.0,0.0,0.0,0.0,0.0,0.0,4.0,4.0
7.0,0.0,4179.487179487181,4225.128205128207,4175.384615384617,4175.384615384617,4180.512820512822,4176.923076923078,4078.46153846154,4184.102564102565,4210.769230769232,4206.153846153848,4201.538461538463,4205.641025641027,4287.179487179489,4177.435897435899,864.0,2050.0,2054.0,0.0,0.0,4.0,4.0,4.0,4.0,0.0,4.0,4.0,4.0,0.0,0.0,0.0,0.0,0.0,0.0,4.0,4.0
8.0,0.0,4181.0256410256425,4231.282051282053,4175.897435897437,4181.538461538463,4182.051282051283,4176.410256410258,4058.9743589743603,4185.641025641027,4212.307692307694,4204.615384615386,4201.0256410256425,4206.153846153848,4290.769230769232,4186.666666666668,759.0,2050.0,2052.0,0.0,0.0,4.0,4.0,4.0,4.0,0.0,4.0,4.0,4.0,4.0,0.0,0.0,0.0,0.0,0.0,4.0,4.0
9.0,0.0,4187.692307692309,4229.743589743592,4182.564102564104,4185.641025641027,4185.641025641027,4181.538461538463,4046.6666666666683,4184.102564102565,4211.282051282053,4201.0256410256425,4201.0256410256425,4202.051282051283,4297.94871794872,4194.871794871797,227.0,2050.0,2051.0,0.0,0.0,4.0,4.0,4.0,4.0,0.0,4.0,4.0,4.0,4.0,3.0,0.0,0.0,0.0,0.0,4.0,4.0
10.0,0.0,4196.923076923078,4242.051282051283,4188.20512820513,4190.256410256412,4181.538461538463,4179.487179487181,4065.641025641027,4182.051282051283,4213.333333333335,4205.128205128207,4204.615384615386,4202.564102564104,4300.000000000002,4193.846153846155,859.0,2050.0,2051.0,0.0,0.0,4.0,4.0,4.0,4.0,0.0,4.0,4.0,4.0,4.0,3.0,0.0,0.0,4.0,0.0,4.0,4.0
11.0,0.0,4191.794871794873,4256.410256410258,4183.076923076925,4181.538461538463,4181.538461538463,4174.3589743589755,4075.8974358974374,4182.051282051283,4215.384615384617,4207.692307692309,4205.128205128207,4202.564102564104,4297.435897435899,4187.692307692309,825.0,2050.0,2051.0,0.0,0.0,4.0,4.0,4.0,4.0,0.0,4.0,4.0,4.0,4.0,3.0,0.0,0.0,4.0,4.0,4.0,4.0
12.0,0.0,4172.307692307694,4240.512820512822,4172.8205128205145,4170.256410256412,4185.641025641027,4176.923076923078,4069.230769230771,4174.871794871797,4205.128205128207,4201.0256410256425,4193.846153846155,4189.743589743592,4288.20512820513,4176.923076923078,833.0,2050.0,2049.0,0.0,0.0,4.0,4.0,4.0,4.0,0.0,4.0,4.0,4.0,4.0,3.0,4.0,0.0,4.0,4.0,4.0,4.0
13.0,0.0,4166.666666666668,4216.923076923078,4168.71794871795,4176.923076923078,4183.076923076925,4176.410256410258,4085.641025641027,4172.307692307694,4199.487179487181,4198.46153846154,4183.076923076925,4180.512820512822,4279.487179487181,4170.769230769232,844.0,2051.0,2049.0,0.0,0.0,4.0,4.0,4.0,4.0,0.0,4.0,4.0,4.0,4.0,3.0,4.0,4.0,4.0,4.0,4.0,4.0
14.0,0.0,4177.94871794872,4218.97435897436,4170.769230769232,4181.0256410256425,4184.102564102565,4171.282051282053,4119.487179487181,4171.794871794873,4204.615384615386,4202.051282051283,4182.564102564104,4187.179487179489,4277.435897435899,4173.333333333335,859.0,2049.0,2046.0,0.0,0.0,4.0,4.0,4.0,4.0,0.0,4.0,4.0,4.0,4.0,3.0,4.0,4.0,4.0,4.0,4.0,4.0
15.0,0.0,4178.46153846154,4237.94871794872,4168.71794871795,4177.94871794872,4183.076923076925,4169.743589743592,4124.615384615386,4166.153846153848,4204.615384615386,4201.538461538463,4190.256410256412,4191.794871794873,4283.589743589745,4171.794871794873,825.0,2049.0,2045.0,0.0,0.0,4.0,4.0,4.0,4.0,0.0,4.0,4.0,4.0,4.0,3.0,4.0,4.0,4.0,4.0,4.0,4.0
16.0,0.0,4180.000000000002,4254.3589743589755,4172.8205128205145,4189.23076923077,4181.538461538463,4178.97435897436,4107.179487179489,4175.384615384617,4211.282051282053,4202.564102564104,4200.512820512822,4194.871794871797,4299.487179487181,4182.051282051283,0.0,2051.0,2043.0,0.0,0.0,4.0,4.0,4.0,4.0,0.0,4.0,4.0,4.0,4.0,3.0,4.0,4.0,4.0,4.0,4.0,4.0
17.0,0.0,4195.384615384617,4251.794871794873,4180.512820512822,4201.538461538463,4184.615384615386,4182.051282051283,4114.3589743589755,4187.179487179489,4221.0256410256425,4204.615384615386,4205.128205128207,4202.564102564104,4305.128205128207,4199.487179487181,0.0,2052.0,2042.0,0.0,0.0,4.0,4.0,4.0,4.0,0.0,4.0,4.0,4.0,4.0,3.0,4.0,4.0,4.0,4.0,4.0,4.0
18.0,0.0,4191.794871794873,4234.3589743589755,4171.794871794873,4191.794871794873,4181.538461538463,4175.384615384617,4144.102564102565,4173.846153846155,4210.769230769232,4201.538461538463,4192.307692307694,4198.46153846154,4289.743589743592,4192.307692307694,0.0,2051.0,2039.0,0.0,0.0,4.0,4.0,4.0,4.0,0.0,4.0,4.0,4.0,4.0,3.0,4.0,4.0,4.0,4.0,4.0,4.0
19.0,0.0,4175.897435897437,4225.128205128207,4164.615384615386,4184.615384615386,4182.051282051283,4180.512820512822,4126.153846153848,4162.051282051283,4201.538461538463,4200.512820512822,4184.102564102565,4188.71794871795,4276.923076923078,4182.564102564104,0.0,2052.0,2038.0,0.0,0.0,4.0,4.0,4.0,4.0,0.0,4.0,4.0,4.0,4.0,3.0,4.0,4.0,4.0,4.0,4.0,4.0
20.0,0.0,4182.051282051283,4218.46153846154,4169.23076923077,4184.615384615386,4182.564102564104,4184.615384615386,4100.512820512822,4175.897435897437,4206.153846153848,4203.589743589745,4192.8205128205145,4193.846153846155,4278.97435897436,4191.282051282053,0.0,2051.0,2035.0,0.0,0.0,4.0,4.0,4.0,4.0,0.0,4.0,4.0,4.0,4.0,3.0,4.0,4.0,4.0,4.0,4.0,4.0
21.0,0.0,4194.3589743589755,4217.435897435899,4173.333333333335,4180.512820512822,4182.564102564104,4176.410256410258,4116.923076923078,4182.051282051283,4208.20512820513,4202.564102564104,4202.564102564104,4203.076923076925,4288.71794871795,4197.94871794872,0.0,2052.0,2031.0,0.0,0.0,4.0,4.0,4.0,4.0,0.0,4.0,4.0,4.0,4.0,3.0,4.0,4.0,4.0,4.0,4.0,4.0
22.0,0.0,4193.846153846155,4231.794871794873,4177.94871794872,4188.20512820513,4184.615384615386,4177.435897435899,4112.8205128205145,4174.871794871797,4210.256410256412,4204.615384615386,4205.641025641027,4204.615384615386,4295.384615384617,4197.94871794872,0.0,2052.0,2031.0,0.0,0.0,4.0,4.0,4.0,4.0,0.0,4.0,4.0,4.0,4.0,3.0,4.0,4.0,4.0,4.0,4.0,4.0
23.0,0.0,4196.410256410258,4245.128205128207,4182.051282051283,4199.487179487181,4184.102564102565,4187.179487179489,4106.666666666668,4180.512820512822,4217.435897435899,4207.179487179489,4211.282051282053,4209.743589743592,4294.871794871797,4203.076923076925,0.0,2053.0,2028.0,0.0,0.0,4.0,4.0,4.0,4.0,0.0,4.0,4.0,4.0,4.0,3.0,4.0,4.0,4.0,4.0,4.0,4.0
24.0,0.0,4205.641025641027,4246.666666666668,4184.102564102565,4205.128205128207,4185.128205128207,4190.769230769232,4157.435897435899,4188.71794871795,4222.051282051283,4206.666666666668,4218.46153846154,4218.97435897436,4293.333333333335,4211.794871794873,0.0,2052.0,2027.0,0.0,0.0,4.0,4.0,4.0,4.0,0.0,4.0,4.0,4.0,4.0,3.0,4.0,4.0,4.0,4.0,4.0,4.0
25.0,0.0,4207.179487179489,4244.102564102565,4185.128205128207,4208.20512820513,4181.538461538463,4188.71794871795,4219.487179487181,4186.666666666668,4222.564102564104,4210.256410256412,4219.487179487181,4217.94871794872,4293.333333333335,4215.384615384617,0.0,2054.0,2027.0,0.0,0.0,4.0,4.0,4.0,4.0,0.0,4.0,4.0,4.0,4.0,3.0,4.0,4.0,4.0,4.0,4.0,4.0
26.0,0.0,4208.20512820513,4235.897435897437,4188.71794871795,4211.282051282053,4181.0256410256425,4186.666666666668,4234.871794871797,4184.102564102565,4220.512820512822,4210.256410256412,4212.307692307694,4216.410256410258,4287.692307692309,4211.794871794873,0.0,2053.0,2028.0,0.0,0.0,4.0,4.0,4.0,4.0,0.0,4.0,4.0,4.0,4.0,3.0,4.0,4.0,4.0,4.0,4.0,4.0
27.0,0.0,4204.615384615386,4218.46153846154,4193.333333333335,4212.307692307694,4188.71794871795,4185.128205128207,4208.20512820513,4183.589743589745,4214.871794871797,4206.153846153848,4204.615384615386,4217.435897435899,4277.94871794872,4208.20512820513,0.0,2052.0,2027.0,0.0,0.0,4.0,4.0,4.0,4.0,0.0,4.0,4.0,4.0,4.0,3.0,4.0,4.0,4.0,4.0,4.0,4.0
28.0,0.0,4193.846153846155,4204.615384615386,4188.71794871795,4213.846153846155,4184.615384615386,4181.538461538463,4173.846153846155,4181.538461538463,4214.871794871797,4206.153846153848,4201.538461538463,4212.307692307694,4274.3589743589755,4207.692307692309,0.0,2052.0,2025.0,0.0,0.0,4.0,4.0,4.0,4.0,0.0,4.0,4.0,4.0,4.0,3.0,4.0,4.0,4.0,4.0,4.0,4.0
29.0,0.0,4199.487179487181,4209.743589743592,4190.769230769232,4214.3589743589755,4181.538461538463,4183.589743589745,4170.769230769232,4184.615384615386,4220.000000000002,4207.692307692309,4206.666666666668,4214.871794871797,4275.384615384617,4212.307692307694,0.0,2052.0,2026.0,0.0,0.0,4.0,4.0,4.0,4.0,0.0,4.0,4.0,4.0,4.0,3.0,4.0,4.0,4.0,4.0,4.0,4.0
30.0,0.0,4212.8205128205145,4227.692307692309,4198.46153846154,4205.128205128207,4181.538461538463,4191.282051282053,4185.641025641027,4190.256410256412,4217.435897435899,4208.20512820513,4213.846153846155,4223.076923076925,4272.307692307694,4214.3589743589755,0.0,2052.0,2025.0,0.0,0.0,4.0,4.0,4.0,4.0,0.0,4.0,4.0,4.0,4.0,3.0,4.0,4.0,4.0,4.0,4.0,4.0
31.0,0.0,4210.256410256412,4236.410256410258,4198.46153846154,4196.923076923078,4180.512820512822,4191.794871794873,4209.23076923077,4191.282051282053,4214.871794871797,4207.692307692309,4211.282051282053,4220.512820512822,4264.615384615386,4207.692307692309,0.0,2052.0,2024.0,0.0,0.0,4.0,4.0,4.0,4.0,0.0,4.0,4.0,4.0,4.0,3.0,4.0,4.0,4.0,4.0,4.0,4.0
32.0,0.0,4208.71794871795,4233.846153846155,4197.435897435899,4201.538461538463,4184.102564102565,4188.71794871795,4260.512820512822,4190.256410256412,4220.512820512822,4211.794871794873,4206.153846153848,4217.435897435899,4263.076923076925,4208.71794871795,0.0,2051.0,2027.0,0.0,0.0,4.0,4.0,4.0,4.0,0.0,4.0,4.0,4.0,4.0,3.0,4.0,4.0,4.0,4.0,4.0,4.0
33.0,0.0,4206.666666666668,4222.051282051283,4192.307692307694,4206.666666666668,4183.589743589745,4190.256410256412,4271.794871794873,4188.71794871795,4218.97435897436,4211.282051282053,4207.179487179489,4214.3589743589755,4260.512820512822,4209.743589743592,0.0,2051.0,2029.0,0.0,0.0,4.0,4.0,4.0,4.0,0.0,4.0,4.0,4.0,4.0,3.0,4.0,4.0,4.0,4.0,4.0,4.0
34.0,0.0,4194.871794871797,4203.589743589745,4187.179487179489,4200.512820512822,4183.589743589745,4190.769230769232,4239.487179487181,4186.153846153848,4207.692307692309,4205.641025641027,4205.128205128207,4204.102564102565,4249.743589743592,4198.97435897436,0.0,2052.0,2028.0,0.0,0.0,4.0,4.0,4.0,4.0,0.0,4.0,4.0,4.0,4.0,3.0,4.0,4.0,4.0,4.0,4.0,4.0
35.0,0.0,4192.307692307694,4204.615384615386,4190.769230769232,4194.3589743589755,4185.641025641027,4181.538461538463,4206.153846153848,4187.179487179489,4209.23076923077,4205.641025641027,4200.512820512822,4206.153846153848,4245.128205128207,4195.384615384617,0.0,2051.0,2026.0,0.0,0.0,4.0,4.0,4.0,4.0,0.0,4.0,4.0,4.0,4.0,3.0,4.0,4.0,4.0,4.0,4.0,4.0
36.0,0.0,4194.3589743589755,4213.846153846155,4184.615384615386,4193.333333333335,4184.102564102565,4173.846153846155,4141.0256410256425,4187.692307692309,4213.333333333335,4206.153846153848,4198.97435897436,4212.307692307694,4249.23076923077,4199.487179487181,0.0,2051.0,2028.0,0.0,0.0,4.0,4.0,4.0,4.0,0.0,4.0,4.0,4.0,4.0,3.0,4.0,4.0,4.0,4.0,4.0,4.0
37.0,0.0,4189.23076923077,4198.97435897436,4173.846153846155,4197.94871794872,4185.641025641027,4176.923076923078,4110.769230769232,4182.564102564104,4206.153846153848,4204.102564102565,4197.435897435899,4207.179487179489,4247.179487179489,4197.435897435899,0.0,2051.0,2031.0,0.0,0.0,4.0,4.0,4.0,4.0,0.0,4.0,4.0,4.0,4.0,3.0,4.0,4.0,4.0,4.0,4.0,4.0
38.0,0.0,4188.71794871795,4197.435897435899,4177.94871794872,4201.0256410256425,4182.564102564104,4178.46153846154,4141.538461538463,4181.0256410256425,4207.692307692309,4205.641025641027,4195.897435897437,4208.71794871795,4246.153846153848,4194.3589743589755,0.0,2050.0,2030.0,0.0,0.0,4.0,4.0,4.0,4.0,0.0,4.0,4.0,4.0,4.0,3.0,4.0,4.0,4.0,4.0,4.0,4.0
39.0,0.0,4193.333333333335,4223.076923076925,4183.076923076925,4194.3589743589755,4182.564102564104,4182.564102564104,4153.846153846155,4188.71794871795,4215.384615384617,4209.743589743592,4202.051282051283,4215.897435897437,4247.179487179489,4194.3589743589755,0.0,2048.0,2031.0,0.0,0.0,4.0,4.0,4.0,4.0,0.0,4.0,4.0,4.0,4.0,3.0,4.0,4.0,4.0,4.0,4.0,4.0
40.0,0.0,4190.769230769232,4217.435897435899,4174.871794871797,4193.846153846155,4186.153846153848,4187.179487179489,4184.102564102565,4191.282051282053,4212.8205128205145,4207.179487179489,4205.128205128207,4212.8205128205145,4238.97435897436,4188.71794871795,0.0,2049.0,2031.0,0.0,0.0,4.0,4.0,4.0,4.0,0.0,4.0,4.0,4.0,4.0,3.0,4.0,4.0,4.0,4.0,4.0,4.0
41.0,0.0,4186.153846153848,4191.794871794873,4165.641025641027,4196.410256410258,4183.589743589745,4183.076923076925,4249.743589743592,4184.615384615386,4205.128205128207,4205.128205128207,4196.923076923078,4204.102564102565,4231.794871794873,4184.615384615386,0.0,2049.0,2032.0,0.0,0.0,4.0,4.0,4.0,4.0,0.0,4.0,4.0,4.0,4.0,3.0,4.0,4.0,4.0,4.0,4.0,4.0
42.0,0.0,4189.23076923077,4200.000000000002,4171.794871794873,4187.692307692309,4183.076923076925,4179.487179487181,4245.128205128207,4184.615384615386,4206.153846153848,4206.153846153848,4192.307692307694,4204.615384615386,4233.846153846155,4191.794871794873,0.0,2048.0,2032.0,0.0,0.0,4.0,4.0,4.0,4.0,0.0,4.0,4.0,4.0,4.0,3.0,4.0,4.0,4.0,4.0,4.0,4.0
43.0,0.0,4185.128205128207,4208.20512820513,4171.282051282053,4178.46153846154,4180.512820512822,4178.46153846154,4202.564102564104,4187.179487179489,4201.538461538463,4201.538461538463,4189.23076923077,4200.000000000002,4229.743589743592,4189.743589743592,0.0,2046.0,2034.0,0.0,0.0,4.0,4.0,4.0,4.0,0.0,4.0,4.0,4.0,4.0,3.0,4.0,4.0,4.0,4.0,4.0,4.0
44.0,0.0,4168.71794871795,4169.23076923077,4155.384615384617,4178.97435897436,4181.0256410256425,4174.3589743589755,4234.3589743589755,4182.564102564104,4190.256410256412,4201.0256410256425,4179.487179487181,4183.076923076925,4210.256410256412,4172.8205128205145,0.0,2046.0,2037.0,0.0,0.0,4.0,4.0,4.0,4.0,0.0,4.0,4.0,4.0,4.0,3.0,4.0,4.0,4.0,4.0,4.0,4.0
45.0,0.0,4158.97435897436,4139.487179487181,4150.769230769232,4176.410256410258,4184.615384615386,4173.333333333335,4260.512820512822,4182.051282051283,4188.20512820513,4200.512820512822,4176.923076923078,4175.897435897437,4197.94871794872,4164.615384615386,0.0,2046.0,2038.0,0.0,0.0,4.0,4.0,4.0,4.0,0.0,4.0,4.0,4.0,4.0,3.0,4.0,4.0,4.0,4.0,4.0,4.0
46.0,0.0,4168.71794871795,4172.307692307694,4164.615384615386,4169.23076923077,4182.564102564104,4175.384615384617,4236.410256410258,4187.692307692309,4195.384615384617,4197.94871794872,4187.692307692309,4190.769230769232,4210.256410256412,4169.743589743592,0.0,2045.0,2039.0,0.0,0.0,4.0,4.0,4.0,4.0,0.0,4.0,4.0,4.0,4.0,3.0,4.0,4.0,4.0,4.0,4.0,4.0
47.0,0.0,4186.666666666668,4211.282051282053,4182.051282051283,4175.897435897437,4184.615384615386,4178.97435897436,4241.538461538463,4190.256410256412,4202.051282051283,4202.051282051283,4194.871794871797,4204.102564102565,4225.641025641027,4177.435897435899,0.0,2046.0,2042.0,0.0,0.0,4.0,4.0,4.0,4.0,0.0,4.0,4.0,4.0,4.0,3.0,4.0,4.0,4.0,4.0,4.0,4.0
48.0,0.0,4190.769230769232,4205.641025641027,4186.666666666668,4193.333333333335,4184.615384615386,4179.487179487181,4266.153846153848,4192.8205128205145,4204.615384615386,4205.128205128207,4194.871794871797,4203.589743589745,4225.641025641027,4182.051282051283,0.0,2046.0,2042.0,0.0,0.0,4.0,4.0,4.0,4.0,0.0,4.0,4.0,4.0,4.0,3.0,4.0,4.0,4.0,4.0,4.0,4.0
49.0,0.0,4192.8205128205145,4196.923076923078,4192.307692307694,4206.153846153848,4184.102564102565,4181.538461538463,4266.666666666668,4200.512820512822,4208.71794871795,4203.589743589745,4201.0256410256425,4211.282051282053,4228.20512820513,4190.769230769232,0.0,2047.0,2044.0,0.0,0.0,4.0,4.0,4.0,4.0,0.0,4.0,4.0,4.0,4.0,3.0,4.0,4.0,4.0,4.0,4.0,4.0
50.0,0.0,4203.076923076925,4212.8205128205145,4199.487179487181,4206.153846153848,4186.666666666668,4184.102564102565,4230.769230769232,4206.153846153848,4215.897435897437,4209.23076923077,4206.666666666668,4219.487179487181,4236.923076923078,4202.051282051283,0.0,2047.0,2045.0,0.0,0.0,4.0,4.0,4.0,4.0,0.0,4.0,4.0,4.0,4.0,3.0,4.0,4.0,4.0,4.0,4.0,4.0
51.0,0.0,4203.076923076925,4208.20512820513,4189.743589743592,4195.384615384617,4183.076923076925,4178.97435897436,4194.871794871797,4200.000000000002,4212.8205128205145,4212.307692307694,4200.512820512822,4214.871794871797,4231.794871794873,4199.487179487181,0.0,2048.0,2045.0,0.0,0.0,4.0,4.0,4.0,4.0,0.0,4.0,4.0,4.0,4.0,3.0,4.0,4.0,4.0,4.0,4.0,4.0
52.0,0.0,4190.256410256412,4184.615384615386,4183.076923076925,4188.71794871795,4183.076923076925,4172.307692307694,4175.897435897437,4190.256410256412,4206.153846153848,4206.666666666668,4198.97435897436,4213.846153846155,4223.076923076925,4190.769230769232,0.0,2047.0,2046.0,0.0,0.0,4.0,4.0,4.0,4.0,0.0,4.0,4.0,4.0,4.0,3.0,4.0,4.0,4.0,4.0,4.0,4.0
53.0,0.0,4190.256410256412,4191.282051282053,4188.71794871795,4192.8205128205145,4181.538461538463,4171.794871794873,4151.794871794873,4191.794871794873,4207.692307692309,4207.179487179489,4205.128205128207,4217.94871794872,4229.743589743592,4190.769230769232,0.0,2048.0,2046.0,0.0,0.0,4.0,4.0,4.0,4.0,0.0,4.0,4.0,4.0,4.0,3.0,4.0,4.0,4.0,4.0,4.0,4.0
54.0,0.0,4202.564102564104,4211.794871794873,4195.384615384617,4201.0256410256425,4182.564102564104,4177.435897435899,4154.3589743589755,4198.97435897436,4212.307692307694,4209.23076923077,4206.153846153848,4218.46153846154,4235.897435897437,4196.923076923078,0.0,2049.0,2046.0,0.0,0.0,4.0,4.0,4.0,4.0,0.0,4.0,4.0,4.0,4.0,3.0,4.0,4.0,4.0,4.0,4.0,4.0
55.0,0.0,4208.20512820513,4207.179487179489,4200.000000000002,4202.051282051283,4188.20512820513,4181.0256410256425,4195.384615384617,4203.076923076925,4214.3589743589755,4209.23076923077,4208.71794871795,4216.923076923078,4233.846153846155,4199.487179487181,0.0,2049.0,2047.0,0.0,0.0,4.0,4.0,4.0,4.0,0.0,4.0,4.0,4.0,4.0,3.0,4.0,4.0,4.0,4.0,4.0,4.0
56.0,0.0,4204.102564102565,4195.384615384617,4197.94871794872,4198.97435897436,4183.589743589745,4180.000000000002,4231.282051282053,4205.641025641027,4213.846153846155,4211.794871794873,4210.769230769232,4217.435897435899,4233.333333333335,4192.307692307694,0.0,2050.0,2046.0,0.0,0.0,4.0,4.0,4.0,4.0,0.0,4.0,4.0,4.0,4.0,3.0,4.0,4.0,4.0,4.0,4.0,4.0
57.0,0.0,4201.538461538463,4205.128205128207,4191.282051282053,4196.923076923078,4182.051282051283,4178.97435897436,4248.20512820513,4208.71794871795,4212.307692307694,4210.769230769232,4208.20512820513,4218.97435897436,4232.307692307694,4191.794871794873,0.0,2050.0,2048.0,0.0,0.0,4.0,4.0,4.0,4.0,0.0,4.0,4.0,4.0,4.0,3.0,4.0,4.0,4.0,4.0,4.0,4.0
58.0,0.0,4188.20512820513,4203.076923076925,4181.538461538463,4185.128205128207,4182.564102564104,4175.897435897437,4267.692307692309,4201.538461538463,4206.153846153848,4206.666666666668,4200.000000000002,4210.769230769232,4217.435897435899,4186.153846153848,0.0,2050.0,2046.0,0.0,0.0,4.0,4.0,4.0,4.0,0.0,4.0,4.0,4.0,4.0,3.0,4.0,4.0,4.0,4.0,4.0,4.0
59.0,0.0,4179.487179487181,4190.769230769232,4177.435897435899,4178.46153846154,4183.076923076925,4172.8205128205145,4269.743589743592,4195.384615384617,4204.615384615386,4207.692307692309,4196.923076923078,4201.538461538463,4208.20512820513,4177.94871794872,0.0,2048.0,2046.0,0.0,0.0,4.0,4.0,4.0,4.0,0.0,4.0,4.0,4.0,4.0,3.0,4.0,4.0,4.0,4.0,4.0,4.0
60.0,0.0,4195.897435897437,4194.3589743589755,4193.333333333335,4196.410256410258,4186.666666666668,4175.384615384617,4246.153846153848,4206.153846153848,4214.871794871797,4214.871794871797,4211.794871794873,4216.410256410258,4225.641025641027,4194.3589743589755,0.0,2048.0,2046.0,0.0,0.0,4.0,4.0,4.0,4.0,0.0,4.0,4.0,4.0,4.0,3.0,4.0,4.0,4.0,4.0,4.0,4.0
61.0,0.0,4207.179487179489,4202.564102564104,4205.641025641027,4207.692307692309,4182.564102564104,4177.94871794872,4237.435897435899,4212.8205128205145,4219.487179487181,4214.3589743589755,4220.000000000002,4229.23076923077,4236.923076923078,4210.256410256412,0.0,2048.0,2048.0,0.0,0.0,4.0,4.0,4.0,4.0,0.0,4.0,4.0,4.0,4.0,3.0,4.0,4.0,4.0,4.0,4.0,4.0
62.0,0.0,4203.076923076925,4209.23076923077,4202.564102564104,4197.435897435899,4184.102564102565,4177.94871794872,4236.410256410258,4204.615384615386,4215.384615384617,4208.20512820513,4211.282051282053,4222.051282051283,4224.102564102565,4198.97435897436,0.0,2047.0,2049.0,0.0,0.0,4.0,4.0,4.0,4.0,0.0,4.0,4.0,4.0,4.0,3.0,4.0,4.0,4.0,4.0,4.0,4.0
63.0,0.0,4198.46153846154,4206.153846153848,4198.46153846154,4195.384615384617,4187.692307692309,4176.923076923078,4221.538461538463,4196.923076923078,4213.333333333335,4207.692307692309,4203.589743589745,4220.000000000002,4213.333333333335,4190.769230769232,0.0,2049.0,2052.0,0.0,0.0,4.0,4.0,4.0,4.0,0.0,4.0,4.0,4.0,4.0,3.0,4.0,4.0,4.0,4.0,4.0,4.0
64.0,0.0,4198.46153846154,4200.512820512822,4201.0256410256425,4198.46153846154,4183.076923076925,4177.94871794872,4225.641025641027,4202.564102564104,4214.3589743589755,4213.846153846155,4204.102564102565,4224.615384615386,4217.94871794872,4200.512820512822,810.0,2048.0,2054.0,0.0,0.0,4.0,4.0,4.0,4.0,0.0,4.0,4.0,4.0,4.0,3.0,4.0,4.0,4.0,4.0,4.0,4.0
65.0,0.0,4199.487179487181,4200.000000000002,4202.564102564104,4187.692307692309,4184.102564102565,4174.871794871797,4245.128205128207,4202.051282051283,4210.769230769232,4211.282051282053,4198.97435897436,4217.435897435899,4220.512820512822,4200.000000000002,846.0,2049.0,2055.0,0.0,0.0,4.0,4.0,4.0,4.0,0.0,4.0,4.0,4.0,4.0,3.0,4.0,4.0,4.0,4.0,4.0,4.0
66.0,0.0,4186.666666666668,4188.20512820513,4190.256410256412,4175.897435897437,4184.102564102565,4166.153846153848,4221.0256410256425,4185.128205128207,4197.435897435899,4199.487179487181,4185.641025641027,4198.97435897436,4205.128205128207,4178.97435897436,838.0,2049.0,2057.0,0.0,0.0,4.0,4.0,4.0,4.0,0.0,4.0,4.0,4.0,4.0,3.0,4.0,4.0,4.0,4.0,4.0,4.0
67.0,0.0,4179.487179487181,4181.538461538463,4187.692307692309,4183.076923076925,4183.076923076925,4168.71794871795,4204.615384615386,4184.102564102565,4195.897435897437,4200.000000000002,4184.102564102565,4200.512820512822,4194.871794871797,4173.333333333335,835.0,2049.0,2058.0,0.0,0.0,4.0,4.0,4.0,4.0,0.0,4.0,4.0,4.0,4.0,3.0,4.0,4.0,4.0,4.0,4.0,4.0
68.0,0.0,4198.46153846154,4196.923076923078,4206.666666666668,4198.97435897436,4182.564102564104,4178.46153846154,4256.410256410258,4201.0256410256425,4211.282051282053,4208.20512820513,4195.384615384617,4225.128205128207,4209.743589743592,4192.8205128205145,0.0,2049.0,2059.0,0.0,0.0,4.0,4.0,4.0,4.0,0.0,4.0,4.0,4.0,4.0,3.0,4.0,4.0,4.0,4.0,4.0,4.0
69.0,0.0,4207.179487179489,4207.692307692309,4212.8205128205145,4200.000000000002,4181.538461538463,4183.589743589745,4274.3589743589755,4208.71794871795,4218.46153846154,4210.256410256412,4206.153846153848,4228.20512820513,4222.564102564104,4203.589743589745,640.0,2049.0,2062.0,0.0,0.0,4.0,4.0,4.0,4.0,0.0,4.0,4.0,4.0,4.0,3.0,4.0,4.0,4.0,4.0,4.0,4.0
70.0,0.0,4187.692307692309,4192.307692307694,4193.846153846155,4186.666666666668,4183.589743589745,4192.307692307694,4194.871794871797,4197.94871794872,4210.256410256412,4206.153846153848,4200.000000000002,4201.0256410256425,4206.666666666668,4191.794871794873,798.0,2048.0,2062.0,0.0,0.0,4.0,4.0,4.0,4.0,0.0,4.0,4.0,4.0,4.0,3.0,4.0,4.0,4.0,4.0,4.0,4.0
71.0,0.0,4173.333333333335,4172.8205128205145,4179.487179487181,4180.000000000002,4183.076923076925,4201.0256410256425,4125.128205128207,4186.153846153848,4194.871794871797,4199.487179487181,4182.564102564104,4182.564102564104,4184.102564102565,4174.3589743589755,864.0,2047.0,2061.0,0.0,0.0,4.0,4.0,4.0,4.0,0.0,4.0,4.0,4.0,4.0,3.0,4.0,4.0,4.0,4.0,4.0,4.0
72.0,0.0,4178.46153846154,4174.3589743589755,4188.20512820513,4184.102564102565,4184.615384615386,4205.641025641027,4120.512820512822,4183.589743589745,4187.692307692309,4200.512820512822,4180.512820512822,4189.743589743592,4183.076923076925,4174.3589743589755,759.0,2048.0,2059.0,0.0,0.0,4.0,4.0,4.0,4.0,0.0,4.0,4.0,4.0,4.0,3.0,4.0,4.0,4.0,4.0,4.0,4.0
73.0,0.0,4184.615384615386,4191.282051282053,4197.435897435899,4183.589743589745,4184.102564102565,4212.307692307694,4123.076923076925,4192.307692307694,4196.923076923078,4205.128205128207,4192.8205128205145,4198.97435897436,4189.23076923077,4182.051282051283,227.0,2048.0,2057.0,0.0,0.0,4.0,4.0,4.0,4.0,0.0,4.0,4.0,4.0,4.0,3.0,4.0,4.0,4.0,4.0,4.0,4.0
74.0,0.0,4179.487179487181,4192.8205128205145,4188.71794871795,4182.564102564104,4179.487179487181,4213.846153846155,4134.871794871797,4202.051282051283,4202.051282051283,4203.076923076925,4194.3589743589755,4197.94871794872,4187.179487179489,4173.846153846155,859.0,2046.0,2055.0,0.0,0.0,4.0,4.0,4.0,4.0,0.0,4.0,4.0,4.0,4.0,3.0,4.0,4.0,4.0,4.0,4.0,4.0
75.0,0.0,4179.487179487181,4185.128205128207,4182.564102564104,4189.743589743592,4182.564102564104,4214.871794871797,4185.641025641027,4198.46153846154,4195.897435897437,4200.512820512822,4186.666666666668,4193.846153846155,4180.512820512822,4170.769230769232,825.0,2047.0,2053.0,0.0,0.0,4.0,4.0,4.0,4.0,0.0,4.0,4.0,4.0,4.0,3.0,4.0,4.0,4.0,4.0,4.0,4.0
76.0,0.0,4189.23076923077,4192.8205128205145,4191.794871794873,4189.743589743592,4181.538461538463,4218.97435897436,4227.179487179489,4195.384615384617,4199.487179487181,4203.076923076925,4188.20512820513,4201.538461538463,4183.076923076925,4184.615384615386,833.0,2048.0,2052.0,0.0,0.0,4.0,4.0,4.0,4.0,0.0,4.0,4.0,4.0,4.0,3.0,4.0,4.0,4.0,4.0,4.0,4.0
77.0,0.0,4195.897435897437,4197.435897435899,4200.000000000002,4192.8205128205145,4179.487179487181,4222.051282051283,4233.333333333335,4201.538461538463,4212.8205128205145,4205.128205128207,4199.487179487181,4214.871794871797,4197.435897435899,4190.769230769232,844.0,2047.0,2051.0,0.0,0.0,4.0,4.0,4.0,4.0,0.0,4.0,4.0,4.0,4.0,3.0,4.0,4.0,4.0,4.0,4.0,4.0
78.0,0.0,4197.435897435899,4186.153846153848,4197.94871794872,4209.743589743592,4182.051282051283,4224.102564102565,4223.076923076925,4207.179487179489,4216.410256410258,4209.23076923077,4205.641025641027,4219.487179487181,4203.076923076925,4192.307692307694,859.0,2047.0,2050.0,0.0,0.0,4.0,4.0,4.0,4.0,0.0,4.0,4.0,4.0,4.0,3.0,4.0,4.0,4.0,4.0,4.0,4.0
79.0,0.0,4193.333333333335,4180.512820512822,4190.256410256412,4207.692307692309,4178.46153846154,4222.564102564104,4229.23076923077,4202.051282051283,4209.743589743592,4211.282051282053,4198.46153846154,4211.282051282053,4191.282051282053,4193.846153846155,825.0,2048.0,2048.0,0.0,0.0,4.0,4.0,4.0,4.0,0.0,4.0,4.0,4.0,4.0,3.0,4.0,4.0,4.0,4.0,4.0,4.0
80.0,0.0,4189.743589743592,4193.333333333335,4191.794871794873,4188.20512820513,4181.0256410256425,4222.051282051283,4269.23076923077,4196.923076923078,4207.692307692309,4205.128205128207,4192.8205128205145,4204.615384615386,4181.538461538463,4188.20512820513,833.0,2047.0,2047.0,0.0,0.0,4.0,4.0,4.0,4.0,0.0,4.0,4.0,4.0,4.0,3.0,4.0,4.0,4.0,4.0,4.0,4.0
81.0,0.0,4195.384615384617,4204.615384615386,4200.000000000002,4193.846153846155,4184.615384615386,4222.051282051283,4274.3589743589755,4206.153846153848,4213.846153846155,4206.666666666668,4199.487179487181,4211.282051282053,4192.307692307694,4192.8205128205145,844.0,2046.0,2046.0,0.0,0.0,4.0,4.0,4.0,4.0,0.0,4.0,4.0,4.0,4.0,3.0,4.0,4.0,4.0,4.0,4.0,4.0
82.0,0.0,4196.923076923078,4194.871794871797,4200.512820512822,4203.076923076925,4183.076923076925,4221.0256410256425,4203.589743589745,4211.282051282053,4218.97435897436,4211.282051282053,4203.076923076925,4218.46153846154,4197.94871794872,4204.102564102565,859.0,2047.0,2047.0,0.0,0.0,4.0,4.0,4.0,4.0,0.0,4.0,4.0,4.0,4.0,3.0,4.0,4.0,4.0,4.0,4.0,4.0
83.0,0.0,4191.282051282053,4186.666666666668,4197.94871794872,4190.769230769232,4183.076923076925,4213.846153846155,4208.20512820513,4197.435897435899,4212.8205128205145,4206.153846153848,4196.410256410258,4216.410256410258,4185.128205128207,4193.846153846155,825.0,2048.0,2046.0,0.0,0.0,4.0,4.0,4.0,4.0,0.0,4.0,4.0,4.0,4.0,3.0,4.0,4.0,4.0,4.0,4.0,4.0
84.0,0.0,4202.564102564104,4205.128205128207,4201.538461538463,4193.846153846155,4180.000000000002,4210.256410256412,4290.769230769232,4196.410256410258,4213.333333333335,4203.589743589745,4197.94871794872,4220.000000000002,4184.615384615386,4188.71794871795,833.0,2046.0,2047.0,0.0,0.0,4.0,4.0,4.0,4.0,0.0,4.0,4.0,4.0,4.0,3.0,4.0,4.0,4.0,4.0,4.0,4.0
85.0,0.0,4209.743589743592,4209.23076923077,4204.615384615386,4209.23076923077,4184.102564102565,4220.000000000002,4265.641025641027,4204.615384615386,4216.410256410258,4208.71794871795,4202.564102564104,4222.051282051283,4192.307692307694,4196.923076923078,844.0,2045.0,2042.0,0.0,0.0,4.0,4.0,4.0,4.0,0.0,4.0,4.0,4.0,4.0,3.0,4.0,4.0,4.0,4.0,4.0,4.0
86.0,0.0,4185.641025641027,4183.076923076925,4192.307692307694,4201.0256410256425,4186.666666666668,4220.000000000002,4207.692307692309,4189.743589743592,4201.0256410256425,4204.102564102565,4193.333333333335,4210.256410256412,4180.512820512822,4184.102564102565,859.0,2044.0,2043.0,0.0,0.0,4.0,4.0,4.0,4.0,0.0,4.0,4.0,4.0,4.0,3.0,4.0,4.0,4.0,4.0,4.0,4.0
87.0,0.0,4177.435897435899,4181.538461538463,4187.179487179489,4192.8205128205145,4183.076923076925,4209.743589743592,4272.307692307694,4182.564102564104,4197.435897435899,4200.512820512822,4192.8205128205145,4206.153846153848,4173.846153846155,4178.46153846154,825.0,2042.0,2041.0,0.0,0.0,4.0,4.0,4.0,4.0,0.0,4.0,4.0,4.0,4.0,3.0,4.0,4.0,4.0,4.0,4.0,4.0
88.0,0.0,4194.3589743589755,4195.384615384617,4194.871794871797,4196.410256410258,4184.102564102565,4210.769230769232,4334.871794871797,4203.589743589745,4212.307692307694,4205.128205128207,4204.615384615386,4210.769230769232,4187.692307692309,4192.8205128205145,833.0,2040.0,2040.0,0.0,0.0,4.0,4.0,4.0,4.0,0.0,4.0,4.0,4.0,4.0,3.0,4.0,4.0,4.0,4.0,4.0,4.0
89.0,0.0,4185.128205128207,4172.8205128205145,4186.153846153848,4193.846153846155,4182.564102564104,4211.794871794873,4271.794871794873,4203.589743589745,4207.692307692309,4201.0256410256425,4196.410256410258,4202.564102564104,4183.589743589745,4180.000000000002,844.0,2040.0,2039.0,0.0,0.0,4.0,4.0,4.0,4.0,0.0,4.0,4.0,4.0,4.0,3.0,4.0,4.0,4.0,4.0,4.0,4.0
90.0,0.0,4169.23076923077,4156.923076923078,4177.435897435899,4178.97435897436,4183.589743589745,4205.128205128207,4189.743589743592,4181.538461538463,4193.333333333335,4199.487179487181,4180.512820512822,4193.846153846155,4167.692307692309,4165.641025641027,859.0,2039.0,2039.0,0.0,0.0,4.0,4.0,4.0,4.0,0.0,4.0,4.0,4.0,4.0,3.0,4.0,4.0,4.0,4.0,4.0,4.0
91.0,0.0,4187.179487179489,4189.743589743592,4188.20512820513,4175.384615384617,4182.564102564104,4204.615384615386,4181.538461538463,4187.179487179489,4204.615384615386,4206.153846153848,4192.307692307694,4205.641025641027,4177.94871794872,4188.71794871795,825.0,2037.0,2038.0,0.0,0.0,4.0,4.0,4.0,4.0,0.0,4.0,4.0,4.0,4.0,3.0,4.0,4.0,4.0,4.0,4.0,4.0
92.0,0.0,4202.564102564104,4207.179487179489,4198.97435897436,4196.410256410258,4180.000000000002,4208.20512820513,4206.666666666668,4204.615384615386,4216.923076923078,4207.179487179489,4207.179487179489,4217.435897435899,4192.307692307694,4201.538461538463,833.0,2037.0,2039.0,0.0,0.0,4.0,4.0,4.0,4.0,0.0,4.0,4.0,4.0,4.0,3.0,4.0,4.0,4.0,4.0,4.0,4.0
93.0,0.0,4196.410256410258,4192.307692307694,4202.564102564104,4205.641025641027,4185.641025641027,4210.256410256412,4215.384615384617,4203.589743589745,4208.71794871795,4203.076923076925,4199.487179487181,4211.282051282053,4182.564102564104,4189.743589743592,844.0,2038.0,2038.0,0.0,0.0,4.0,4.0,4.0,4.0,0.0,4.0,4.0,4.0,4.0,3.0,4.0,4.0,4.0,4.0,4.0,4.0
94.0,0.0,4186.666666666668,4181.538461538463,4196.923076923078,4186.666666666668,4182.564102564104,4205.128205128207,4192.8205128205145,4195.384615384617,4201.0256410256425,4200.000000000002,4190.769230769232,4201.0256410256425,4169.23076923077,4183.076923076925,859.0,2038.0,2038.0,0.0,0.0,4.0,4.0,4.0,4.0,0.0,4.0,4.0,4.0,4.0,3.0,4.0,4.0,4.0,4.0,4.0,4.0
95.0,0.0,4176.410256410258,4166.153846153848,4186.153846153848,4178.46153846154,4181.0256410256425,4197.94871794872,4161.0256410256425,4187.179487179489,4197.435897435899,4200.512820512822,4186.153846153848,4194.3589743589755,4161.538461538463,4177.94871794872,825.0,2038.0,2037.0,0.0,0.0,4.0,4.0,4.0,4.0,0.0,4.0,4.0,4.0,4.0,3.0,4.0,4.0,4.0,4.0,4.0,4.0
96.0,0.0,4175.897435897437,4163.589743589745,4185.641025641027,4186.666666666668,4184.102564102565,4198.97435897436,4131.794871794873,4181.0256410256425,4195.897435897437,4200.512820512822,4184.615384615386,4193.846153846155,4164.102564102565,4177.435897435899,833.0,2037.0,2039.0,0.0,0.0,4.0,4.0,4.0,4.0,0.0,4.0,4.0,4.0,4.0,3.0,4.0,4.0,4.0,4.0,4.0,4.0
97.0,0.0,4179.487179487181,4186.153846153848,4188.20512820513,4183.076923076925,4182.564102564104,4202.564102564104,4145.641025641027,4182.051282051283,4198.46153846154,4200.512820512822,4189.743589743592,4197.435897435899,4170.769230769232,4180.000000000002,844.0,2038.0,2040.0,0.0,0.0,4.0,4.0,4.0,4.0,0.0,4.0,4.0,4.0,4.0,3.0,4.0,4.0,4.0,4.0,4.0,4.0
98.0,0.0,4179.487179487181,4190.256410256412,4188.20512820513,4183.589743589745,4183.589743589745,4200.000000000002,4209.23076923077,4185.641025641027,4203.589743589745,4201.0256410256425,4192.8205128205145,4200.512820512822,4162.051282051283,4178.97435897436,859.0,2038.0,2039.0,0.0,0.0,4.0,4.0,4.0,4.0,0.0,4.0,4.0,4.0,4.0,3.0,4.0,4.0,4.0,4.0,4.0,4.0
99.0,0.0,4185.641025641027,4180.000000000002,4191.282051282053,4191.282051282053,4182.564102564104,4197.94871794872,4211.282051282053,4187.692307692309,4205.128205128207,4202.051282051283,4193.846153846155,4205.641025641027,4157.435897435899,4186.666666666668,825.0,2039.0,2039.0,0.0,0.0,4.0,4.0,4.0,4.0,0.0,4.0,4.0,4.0,4.0,3.0,4.0,4.0,4.0,4.0,4.0,4.0
100.0,0.0,4191.282051282053,4180.000000000002,4199.487179487181,4184.615384615386,4183.076923076925,4205.641025641027,4152.307692307694,4190.256410256412,4205.128205128207,4204.102564102565,4198.97435897436,4211.794871794873,4171.282051282053,4194.871794871797,833.0,2039.0,2040.0,0.0,0.0,4.0,4.0,4.0,4.0,0.0,4.0,4.0,4.0,4.0,3.0,4.0,4.0,4.0,4.0,4.0,4.0
101.0,0.0,4184.102564102565,4176.923076923078,4200.000000000002,4178.97435897436,4182.564102564104,4206.153846153848,4160.000000000002,4185.641025641027,4204.102564102565,4203.076923076925,4194.871794871797,4208.71794871795,4174.3589743589755,4181.538461538463,844.0,2039.0,2040.0,0.0,0.0,4.0,4.0,4.0,4.0,0.0,4.0,4.0,4.0,4.0,3.0,4.0,4.0,4.0,4.0,4.0,4.0
102.0,0.0,4180.000000000002,4172.8205128205145,4190.769230769232,4186.153846153848,4180.512820512822,4198.46153846154,4187.179487179489,4179.487179487181,4197.94871794872,4201.0256410256425,4184.102564102565,4200.512820512822,4157.435897435899,4173.846153846155,859.0,2038.0,2042.0,0.0,0.0,4.0,4.0,4.0,4.0,0.0,4.0,4.0,4.0,4.0,3.0,4.0,4.0,4.0,4.0,4.0,4.0
103.0,0.0,4179.487179487181,4164.102564102565,4186.666666666668,4189.743589743592,4182.564102564104,4198.46153846154,4133.846153846155,4179.487179487181,4195.897435897437,4200.512820512822,4185.128205128207,4198.97435897436,4151.282051282053,4188.20512820513,825.0,2039.0,2043.0,0.0,0.0,4.0,4.0,4.0,4.0,0.0,4.0,4.0,4.0,4.0,3.0,4.0,4.0,4.0,4.0,4.0,4.0
104.0,0.0,4174.871794871797,4173.333333333335,4184.102564102565,4179.487179487181,4180.512820512822,4196.410256410258,4111.282051282053,4180.000000000002,4197.94871794872,4200.512820512822,4191.794871794873,4198.46153846154,4162.051282051283,4193.846153846155,833.0,2041.0,2044.0,0.0,0.0,4.0,4.0,4.0,4.0,0.0,4.0,4.0,4.0,4.0,3.0,4.0,4.0,4.0,4.0,4.0,4.0
105.0,0.0,4186.666666666668,4200.000000000002,4191.794871794873,4176.923076923078,4180.512820512822,4196.410256410258,4179.487179487181,4185.641025641027,4202.051282051283,4201.538461538463,4196.410256410258,4206.666666666668,4170.769230769232,4190.769230769232,844.0,2041.0,2044.0,0.0,0.0,4.0,4.0,4.0,4.0,0.0,4.0,4.0,4.0,4.0,3.0,4.0,4.0,4.0,4.0,4.0,4.0
106.0,0.0,4193.333333333335,4172.8205128205145,4206.153846153848,4188.71794871795,4184.102564102565,4202.564102564104,4204.615384615386,4194.871794871797,4211.282051282053,4204.615384615386,4202.564102564104,4221.538461538463,4171.282051282053,4194.871794871797,859.0,2042.0,2044.0,0.0,0.0,4.0,4.0,4.0,4.0,0.0,4.0,4.0,4.0,4.0,3.0,4.0,4.0,4.0,4.0,4.0,4.0
107.0,0.0,4180.512820512822,4146.153846153848,4203.076923076925,4181.538461538463,4182.564102564104,4201.0256410256425,4175.384615384617,4191.282051282053,4209.743589743592,4202.051282051283,4196.410256410258,4215.384615384617,4169.743589743592,4192.307692307694,825.0,2043.0,2044.0,0.0,0.0,4.0,4.0,4.0,4.0,0.0,4.0,4.0,4.0,4.0,3.0,4.0,4.0,4.0,4.0,4.0,4.0
108.0,0.0,4187.179487179489,4213.333333333335,4194.871794871797,4176.923076923078,4184.102564102565,4197.435897435899,4178.97435897436,4183.589743589745,4201.538461538463,4198.97435897436,4187.179487179489,4206.153846153848,4167.179487179489,4185.641025641027,833.0,2043.0,2045.0,0.0,0.0,4.0,4.0,4.0,4.0,0.0,4.0,4.0,4.0,4.0,3.0,4.0,4.0,4.0,4.0,4.0,4.0
109.0,0.0,4190.769230769232,4209.23076923077,4192.307692307694,4207.179487179489,4181.538461538463,4196.410256410258,4182.564102564104,4186.153846153848,4198.97435897436,4201.0256410256425,4185.641025641027,4211.282051282053,4159.487179487181,4178.97435897436,844.0,2045.0,2045.0,0.0,0.0,4.0,4.0,4.0,4.0,0.0,4.0,4.0,4.0,4.0,3.0,4.0,4.0,4.0,4.0,4.0,4.0
110.0,0.0,4169.743589743592,4107.692307692309,4190.256410256412,4203.076923076925,4179.487179487181,4192.307692307694,4110.256410256412,4178.97435897436,4193.333333333335,4200.512820512822,4178.46153846154,4206.666666666668,4149.23076923077,4168.71794871795,859.0,2045.0,2044.0,0.0,0.0,4.0,4.0,4.0,4.0,0.0,4.0,4.0,4.0,4.0,3.0,4.0,4.0,4.0,4.0,4.0,4.0
111.0,0.0,4174.871794871797,4148.71794871795,4189.743589743592,4167.692307692309,4184.615384615386,4189.23076923077,4049.230769230771,4165.641025641027,4190.769230769232,4197.435897435899,4175.897435897437,4203.076923076925,4152.8205128205145,4175.384615384617,825.0,2046.0,2043.0,0.0,0.0,4.0,4.0,4.0,4.0,0.0,4.0,4.0,4.0,4.0,3.0,4.0,4.0,4.0,4.0,4.0,4.0
112.0,0.0,4200.512820512822,4262.051282051283,4190.256410256412,4177.435897435899,4182.564102564104,4192.307692307694,4106.153846153848,4177.94871794872,4203.076923076925,4200.512820512822,4191.282051282053,4213.333333333335,4168.71794871795,4195.384615384617,833.0,2048.0,2042.0,0.0,0.0,4.0,4.0,4.0,4.0,0.0,4.0,4.0,4.0,4.0,3.0,4.0,4.0,4.0,4.0,4.0,4.0
113.0,0.0,4197.435897435899,4237.94871794872,4192.8205128205145,4196.410256410258,4185.128205128207,4193.333333333335,4176.923076923078,4191.282051282053,4209.743589743592,4204.102564102565,4200.512820512822,4214.871794871797,4176.410256410258,4202.051282051283,844.0,2049.0,2042.0,0.0,0.0,4.0,4.0,4.0,4.0,0.0,4.0,4.0,4.0,4.0,3.0,4.0,4.0,4.0,4.0,4.0,4.0
114.0,0.0,4183.076923076925,4171.794871794873,4193.333333333335,4188.71794871795,4186.666666666668,4189.23076923077,4126.666666666668,4176.923076923078,4200.000000000002,4202.051282051283,4190.769230769232,4205.641025641027,4165.641025641027,4195.897435897437,859.0,2049.0,2041.0,0.0,0.0,4.0,4.0,4.0,4.0,0.0,4.0,4.0,4.0,4.0,3.0,4.0,4.0,4.0,4.0,4.0,4.0
115.0,0.0,4181.538461538463,4171.794871794873,4188.20512820513,4187.179487179489,4182.051282051283,4190.256410256412,4053.333333333335,4165.128205128207,4193.333333333335,4199.487179487181,4180.512820512822,4205.128205128207,4152.307692307694,4185.641025641027,825.0,2049.0,2042.0,0.0,0.0,4.0,4.0,4.0,4.0,0.0,4.0,4.0,4.0,4.0,3.0,4.0,4.0,4.0,4.0,4.0,4.0
116.0,0.0,4183.076923076925,4165.641025641027,4186.153846153848,4192.8205128205145,4184.615384615386,4196.410256410258,4078.9743589743603,4172.307692307694,4193.333333333335,4200.512820512822,4182.564102564104,4207.179487179489,4154.3589743589755,4182.051282051283,833.0,2050.0,2040.0,0.0,0.0,4.0,4.0,4.0,4.0,0.0,4.0,4.0,4.0,4.0,3.0,4.0,4.0,4.0,4.0,4.0,4.0
117.0,0.0,4177.94871794872,4147.179487179489,4181.538461538463,4185.641025641027,4184.102564102565,4193.846153846155,4123.076923076925,4168.71794871795,4187.179487179489,4199.487179487181,4178.97435897436,4196.410256410258,4157.435897435899,4176.410256410258,844.0,2051.0,2039.0,0.0,0.0,4.0,4.0,4.0,4.0,0.0,4.0,4.0,4.0,4.0,3.0,4.0,4.0,4.0,4.0,4.0,4.0
118.0,0.0,4171.794871794873,4145.641025641027,4174.871794871797,4174.3589743589755,4184.102564102565,4187.179487179489,4104.102564102565,4153.846153846155,4182.051282051283,4197.94871794872,4169.743589743592,4185.128205128207,4148.71794871795,4170.256410256412,859.0,2052.0,2038.0,0.0,0.0,4.0,4.0,4.0,4.0,0.0,4.0,4.0,4.0,4.0,3.0,4.0,4.0,4.0,4.0,4.0,4.0
119.0,0.0,4180.000000000002,4078.46153846154,4181.0256410256425,4171.282051282053,4184.615384615386,4189.743589743592,4078.46153846154,4161.538461538463,4188.20512820513,4198.97435897436,4177.94871794872,4194.3589743589755,4152.8205128205145,4178.46153846154,825.0,2053.0,2038.0,0.0,0.0,4.0,4.0,4.0,4.0,0.0,4.0,4.0,4.0,4.0,3.0,4.0,4.0,4.0,4.0,4.0,4.0
120.0,0.0,4196.410256410258,3959.487179487181,4200.000000000002,4188.20512820513,4182.564102564104,4196.923076923078,4104.615384615386,4187.179487179489,4204.615384615386,4201.538461538463,4197.435897435899,4215.384615384617,4175.384615384617,4193.846153846155,833.0,2053.0,2033.0,0.0,0.0,4.0,4.0,4.0,4.0,0.0,4.0,4.0,4.0,4.0,3.0,4.0,4.0,4.0,4.0,4.0,4.0
121.0,0.0,4192.8205128205145,3892.3076923076937,4206.666666666668,4197.435897435899,4183.589743589745,4195.384615384617,4141.0256410256425,4191.282051282053,4209.743589743592,4202.564102564104,4198.46153846154,4218.46153846154,4176.923076923078,4191.282051282053,844.0,2055.0,2033.0,0.0,0.0,4.0,4.0,4.0,4.0,0.0,4.0,4.0,4.0,4.0,3.0,4.0,4.0,4.0,4.0,4.0,4.0
122.0,0.0,4172.8205128205145,3903.0769230769247,4185.641025641027,4171.794871794873,4183.076923076925,4186.666666666668,4133.333333333335,4172.8205128205145,4193.846153846155,4200.000000000002,4180.000000000002,4198.97435897436,4155.384615384617,4175.384615384617,859.0,2053.0,2029.0,0.0,0.0,4.0,4.0,4.0,4.0,0.0,4.0,4.0,4.0,4.0,3.0,4.0,4.0,4.0,4.0,4.0,4.0
123.0,0.0,4166.666666666668,3917.435897435899,4172.307692307694,4169.743589743592,4186.153846153848,4188.20512820513,4120.512820512822,4167.179487179489,4185.128205128207,4197.94871794872,4176.410256410258,4188.20512820513,4148.71794871795,4170.769230769232,825.0,2051.0,2027.0,0.0,0.0,4.0,4.0,4.0,4.0,0.0,4.0,4.0,4.0,4.0,3.0,4.0,4.0,4.0,4.0,4.0,4.0
124.0,0.0,4165.128205128207,3914.8717948717963,4182.051282051283,4189.743589743592,4186.666666666668,4191.282051282053,4143.076923076925,4170.769230769232,4191.282051282053,4198.97435897436,4181.538461538463,4189.743589743592,4154.3589743589755,4165.641025641027,833.0,2052.0,2028.0,0.0,0.0,4.0,4.0,4.0,4.0,0.0,4.0,4.0,4.0,4.0,3.0,4.0,4.0,4.0,4.0,4.0,4.0
125.0,0.0,4162.564102564104,3947.692307692309,4186.666666666668,4184.615384615386,4182.564102564104,4188.71794871795,4183.589743589745,4167.179487179489,4195.384615384617,4201.0256410256425,4181.0256410256425,4194.871794871797,4152.8205128205145,4163.076923076925,844.0,2052.0,2026.0,0.0,0.0,4.0,4.0,4.0,4.0,0.0,4.0,4.0,4.0,4.0,3.0,4.0,4.0,4.0,4.0,4.0,4.0
126.0,0.0,4172.8205128205145,4006.1538461538476,4189.23076923077,4180.000000000002,4184.615384615386,4191.794871794873,4193.846153846155,4168.20512820513,4198.46153846154,4202.051282051283,4187.179487179489,4203.589743589745,4154.3589743589755,4175.897435897437,859.0,2051.0,2026.0,0.0,0.0,4.0,4.0,4.0,4.0,0.0,4.0,4.0,4.0,4.0,3.0,4.0,4.0,4.0,4.0,4.0,4.0
127.0,0.0,4173.846153846155,4021.0256410256425,4193.333333333335,4184.615384615386,4184.102564102565,4193.846153846155,4184.102564102565,4173.846153846155,4200.512820512822,4201.0256410256425,4188.71794871795,4201.538461538463,4155.897435897437,4176.410256410258,825.0,2051.0,2027.0,0.0,0.0,4.0,4.0,4.0,4.0,0.0,4.0,4.0,4.0,4.0,3.0,4.0,4.0,4.0,4.0,4.0,4.0
128.0,0.0,4164.615384615386,4024.615384615386,4190.256410256412,4183.589743589745,4183.076923076925,4192.8205128205145,4183.589743589745,4171.794871794873,4197.435897435899,4201.538461538463,4182.051282051283,4196.410256410258,4147.179487179489,4167.179487179489,833.0,2050.0,2028.0,0.0,0.0,4.0,4.0,4.0,4.0,0.0,4.0,4.0,4.0,4.0,3.0,4.0,4.0,4.0,4.0,4.0,4.0
0.0,0.0,4173.846153846155,4110.256410256412,4187.179487179489,4186.153846153848,4183.076923076925,4191.794871794873,4184.615384615386,4174.3589743589755,4196.410256410258,4203.589743589745,4188.20512820513,4203.076923076925,4145.128205128207,4168.71794871795,810.0,2049.0,2028.0,0.0,0.0,4.0,4.0,4.0,4.0,0.0,4.0,4.0,4.0,4.0,3.0,4.0,4.0,4.0,4.0,4.0,4.0
1.0,0.0,4176.410256410258,4186.666666666668,4186.153846153848,4180.000000000002,4182.564102564104,4191.794871794873,4185.128205128207,4181.538461538463,4199.487179487181,4202.564102564104,4194.3589743589755,4203.589743589745,4151.794871794873,4163.076923076925,847.0,2049.0,2028.0,0.0,0.0,4.0,4.0,4.0,4.0,0.0,4.0,4.0,4.0,4.0,3.0,4.0,4.0,4.0,4.0,4.0,4.0
2.0,0.0,4166.666666666668,4166.666666666668,4191.282051282053,4172.8205128205145,4186.666666666668,4195.384615384617,4183.589743589745,4177.435897435899,4202.564102564104,4200.512820512822,4190.256410256412,4203.589743589745,4152.8205128205145,4157.94871794872,841.0,2047.0,2028.0,0.0,0.0,4.0,4.0,4.0,4.0,0.0,4.0,4.0,4.0,4.0,3.0,4.0,4.0,4.0,4.0,4.0,4.0
3.0,0.0,4179.487179487181,4151.282051282053,4200.512820512822,4192.8205128205145,4185.128205128207,4194.3589743589755,4154.3589743589755,4169.23076923077,4202.051282051283,4201.538461538463,4190.256410256412,4217.435897435899,4150.256410256412,4174.3589743589755,836.0,2048.0,2028.0,0.0,0.0,4.0,4.0,4.0,4.0,0.0,4.0,4.0,4.0,4.0,3.0,4.0,4.0,4.0,4.0,4.0,4.0
4.0,0.0,4194.3589743589755,4185.641025641027,4203.076923076925,4204.102564102565,4181.0256410256425,4190.256410256412,4119.487179487181,4170.769230769232,4200.512820512822,4203.076923076925,4192.8205128205145,4222.564102564104,4154.3589743589755,4188.71794871795,0.0,2047.0,2029.0,0.0,0.0,4.0,4.0,4.0,4.0,0.0,4.0,4.0,4.0,4.0,3.0,4.0,4.0,4.0,4.0,4.0,4.0
5.0,0.0,4183.589743589745,4202.051282051283,4194.871794871797,4186.666666666668,4180.512820512822,4192.8205128205145,4127.179487179489,4174.3589743589755,4200.000000000002,4202.564102564104,4192.307692307694,4212.8205128205145,4157.435897435899,4183.076923076925,639.0,2047.0,2031.0,0.0,0.0,4.0,4.0,4.0,4.0,0.0,4.0,4.0,4.0,4.0,3.0,4.0,4.0,4.0,4.0,4.0,4.0
6.0,0.0,4175.897435897437,4188.20512820513,4185.641025641027,4178.97435897436,4180.000000000002,4194.3589743589755,4158.46153846154,4172.307692307694,4196.923076923078,4200.000000000002,4188.71794871795,4205.641025641027,4147.179487179489,4173.846153846155,797.0,2045.0,2029.0,0.0,0.0,4.0,4.0,4.0,4.0,0.0,4.0,4.0,4.0,4.0,3.0,4.0,4.0,4.0,4.0,4.0,4.0
7.0,0.0,4181.0256410256425,4180.000000000002,4188.20512820513,4184.102564102565,4183.589743589745,4192.8205128205145,4176.410256410258,4170.256410256412,4191.794871794873,4198.97435897436,4186.666666666668,4204.102564102565,4140.000000000002,4175.897435897437,896.0,2045.0,2028.0,0.0,0.0,4.0,4.0,4.0,4.0,0.0,4.0,4.0,4.0,4.0,3.0,4.0,4.0,4.0,4.0,4.0,4.0
8.0,0.0,4174.3589743589755,4169.23076923077,4192.307692307694,4179.487179487181,4182.051282051283,4193.333333333335,4202.051282051283,4173.333333333335,4192.8205128205145,4204.102564102565,4190.256410256412,4203.589743589745,4147.179487179489,4177.435897435899,759.0,2043.0,2026.0,0.0,0.0,4.0,4.0,4.0,4.0,0.0,4.0,4.0,4.0,4.0,3.0,4.0,4.0,4.0,4.0,4.0,4.0
9.0,0.0,4174.3589743589755,4168.71794871795,4194.871794871797,4180.512820512822,4180.000000000002,4195.384615384617,4241.0256410256425,4185.641025641027,4202.564102564104,4206.666666666668,4196.923076923078,4206.666666666668,4155.384615384617,4176.923076923078,227.0,2043.0,2026.0,0.0,0.0,4.0,4.0,4.0,4.0,0.0,4.0,4.0,4.0,4.0,3.0,4.0,4.0,4.0,4.0,4.0,4.0
10.0,0.0,4188.20512820513,4185.128205128207,4195.384615384617,4198.97435897436,4181.538461538463,4196.923076923078,4258.46153846154,4194.3589743589755,4208.20512820513,4203.076923076925,4201.0256410256425,4209.743589743592,4156.410256410258,4182.051282051283,859.0,2043.0,2025.0,0.0,0.0,4.0,4.0,4.0,4.0,0.0,4.0,4.0,4.0,4.0,3.0,4.0,4.0,4.0,4.0,4.0,4.0
11.0,0.0,4170.256410256412,4175.384615384617,4181.0256410256425,4193.846153846155,4180.000000000002,4192.8205128205145,4248.20512820513,4181.0256410256425,4195.897435897437,4198.97435897436,4190.769230769232,4194.871794871797,4147.179487179489,4167.179487179489,862.0,2041.0,2024.0,0.0,0.0,4.0,4.0,4.0,4.0,0.0,4.0,4.0,4.0,4.0,3.0,4.0,4.0,4.0,4.0,4.0,4.0
12.0,0.0,4156.410256410258,4177.94871794872,4174.3589743589755,4176.410256410258,4184.615384615386,4193.846153846155,4228.71794871795,4174.3589743589755,4190.769230769232,4201.0256410256425,4186.153846153848,4187.692307692309,4142.564102564104,4156.410256410258,886.0,2041.0,2024.0,0.0,0.0,4.0,4.0,4.0,4.0,0.0,4.0,4.0,4.0,4.0,3.0,4.0,4.0,4.0,4.0,4.0,4.0
13.0,0.0,4184.102564102565,4212.307692307694,4185.641025641027,4181.538461538463,4182.564102564104,4200.000000000002,4201.538461538463,4193.846153846155,4208.71794871795,4207.692307692309,4202.051282051283,4207.692307692309,4156.410256410258,4181.538461538463,847.0,2039.0,2025.0,0.0,0.0,4.0,4.0,4.0,4.0,0.0,4.0,4.0,4.0,4.0,3.0,4.0,4.0,4.0,4.0,4.0,4.0
14.0,0.0,4182.564102564104,4184.102564102565,4185.128205128207,4179.487179487181,4180.512820512822,4198.97435897436,4185.641025641027,4198.97435897436,4212.307692307694,4208.20512820513,4205.128205128207,4205.128205128207,4158.46153846154,4190.256410256412,859.0,2040.0,2026.0,0.0,0.0,4.0,4.0,4.0,4.0,0.0,4.0,4.0,4.0,4.0,3.0,4.0,4.0,4.0,4.0,4.0,4.0
15.0,0.0,4150.256410256412,4128.20512820513,4168.20512820513,4164.102564102565,4188.20512820513,4192.8205128205145,4205.641025641027,4178.46153846154,4190.769230769232,4200.512820512822,4180.512820512822,4175.384615384617,4140.512820512822,4163.589743589745,862.0,2038.0,2025.0,0.0,0.0,4.0,4.0,4.0,4.0,0.0,4.0,4.0,4.0,4.0,3.0,4.0,4.0,4.0,4.0,4.0,4.0
16.0,0.0,4161.0256410256425,4175.384615384617,4166.666666666668,4172.8205128205145,4187.179487179489,4189.743589743592,4211.794871794873,4178.97435897436,4190.769230769232,4197.94871794872,4180.000000000002,4180.512820512822,4146.153846153848,4163.589743589745,0.0,2038.0,2025.0,0.0,0.0,4.0,4.0,4.0,4.0,0.0,4.0,4.0,4.0,4.0,3.0,4.0,4.0,4.0,4.0,4.0,4.0
17.0,0.0,4183.589743589745,4226.666666666668,4178.46153846154,4191.794871794873,4183.076923076925,4191.282051282053,4146.666666666668,4195.384615384617,4210.769230769232,4204.615384615386,4208.20512820513,4209.743589743592,4163.589743589745,4184.615384615386,0.0,2037.0,2024.0,0.0,0.0,4.0,4.0,4.0,4.0,0.0,4.0,4.0,4.0,4.0,3.0,4.0,4.0,4.0,4.0,4.0,4.0
18.0,0.0,4166.153846153848,4167.692307692309,4174.871794871797,4183.589743589745,4184.102564102565,4190.256410256412,4064.102564102566,4187.692307692309,4202.564102564104,4204.102564102565,4203.589743589745,4202.564102564104,4145.641025641027,4176.923076923078,0.0,2037.0,2025.0,0.0,0.0,4.0,4.0,4.0,4.0,0.0,4.0,4.0,4.0,4.0,3.0,4.0,4.0,4.0,4.0,4.0,4.0
19.0,0.0,4170.769230769232,4142.564102564104,4177.435897435899,4183.589743589745,4183.589743589745,4191.794871794873,4081.0256410256425,4186.666666666668,4195.384615384617,4198.46153846154,4190.256410256412,4194.3589743589755,4143.076923076925,4172.307692307694,0.0,2037.0,2028.0,0.0,0.0,4.0,4.0,4.0,4.0,0.0,4.0,4.0,4.0,4.0,3.0,4.0,4.0,4.0,4.0,4.0,4.0
20.0,0.0,4197.94871794872,4210.256410256412,4199.487179487181,4194.3589743589755,4183.589743589745,4194.871794871797,4206.153846153848,4207.179487179489,4216.410256410258,4205.128205128207,4210.769230769232,4215.384615384617,4171.794871794873,4187.179487179489,0.0,2038.0,2029.0,0.0,0.0,4.0,4.0,4.0,4.0,0.0,4.0,4.0,4.0,4.0,3.0,4.0,4.0,4.0,4.0,4.0,4.0
21.0,0.0,4187.179487179489,4230.769230769232,4201.538461538463,4182.564102564104,4181.0256410256425,4192.307692307694,4277.94871794872,4210.769230769232,4221.0256410256425,4210.256410256412,4218.46153846154,4220.512820512822,4171.794871794873,4184.615384615386,0.0,2037.0,2029.0,0.0,0.0,4.0,4.0,4.0,4.0,0.0,4.0,4.0,4.0,4.0,3.0,4.0,4.0,4.0,4.0,4.0,4.0
22.0,0.0,4171.282051282053,4183.589743589745,4186.666666666668,4179.487179487181,4180.000000000002,4192.8205128205145,4202.564102564104,4195.384615384617,4205.128205128207,4204.102564102565,4198.46153846154,4205.128205128207,4148.20512820513,4176.410256410258,0.0,2037.0,2031.0,0.0,0.0,4.0,4.0,4.0,4.0,0.0,4.0,4.0,4.0,4.0,3.0,4.0,4.0,4.0,4.0,4.0,4.0
23.0,0.0,4176.923076923078,4165.128205128207,4186.666666666668,4192.307692307694,4177.94871794872,4194.3589743589755,4090.7692307692323,4191.794871794873,4197.435897435899,4200.512820512822,4189.743589743592,4203.589743589745,4145.128205128207,4180.000000000002,0.0,2037.0,2033.0,0.0,0.0,4.0,4.0,4.0,4.0,0.0,4.0,4.0,4.0,4.0,3.0,4.0,4.0,4.0,4.0,4.0,4.0
24.0,0.0,4175.384615384617,4189.743589743592,4197.435897435899,4194.3589743589755,4178.46153846154,4191.282051282053,4059.487179487181,4198.97435897436,4203.589743589745,4206.153846153848,4198.97435897436,4215.384615384617,4158.97435897436,4181.0256410256425,0.0,2037.0,2035.0,0.0,0.0,4.0,4.0,4.0,4.0,0.0,4.0,4.0,4.0,4.0,3.0,4.0,4.0,4.0,4.0,4.0,4.0
25.0,0.0,4158.97435897436,4197.435897435899,4191.794871794873,4184.102564102565,4185.641025641027,4186.153846153848,4089.743589743591,4191.282051282053,4204.615384615386,4206.153846153848,4201.538461538463,4211.794871794873,4154.3589743589755,4175.384615384617,0.0,2039.0,2036.0,0.0,0.0,4.0,4.0,4.0,4.0,0.0,4.0,4.0,4.0,4.0,3.0,4.0,4.0,4.0,4.0,4.0,4.0
26.0,0.0,4145.641025641027,4176.410256410258,4171.794871794873,4177.94871794872,4182.051282051283,4183.589743589745,4097.435897435899,4182.051282051283,4197.435897435899,4201.0256410256425,4193.846153846155,4195.897435897437,4140.000000000002,4169.743589743592,0.0,2039.0,2037.0,0.0,0.0,4.0,4.0,4.0,4.0,0.0,4.0,4.0,4.0,4.0,3.0,4.0,4.0,4.0,4.0,4.0,4.0
27.0,0.0,4150.256410256412,4172.8205128205145,4174.3589743589755,4181.538461538463,4179.487179487181,4186.153846153848,4074.8717948717963,4193.333333333335,4196.923076923078,4201.538461538463,4193.846153846155,4195.897435897437,4146.153846153848,4174.3589743589755,0.0,2039.0,2037.0,0.0,0.0,4.0,4.0,4.0,4.0,0.0,4.0,4.0,4.0,4.0,3.0,4.0,4.0,4.0,4.0,4.0,4.0
28.0,0.0,4161.0256410256425,4186.153846153848,4191.794871794873,4185.641025641027,4185.128205128207,4191.282051282053,4079.487179487181,4202.051282051283,4204.615384615386,4205.128205128207,4200.000000000002,4209.23076923077,4155.384615384617,4185.128205128207,0.0,2041.0,2037.0,0.0,0.0,4.0,4.0,4.0,4.0,0.0,4.0,4.0,4.0,4.0,3.0,4.0,4.0,4.0,4.0,4.0,4.0
29.0,0.0,4159.487179487181,4187.179487179489,4185.641025641027,4180.512820512822,4184.102564102565,4191.794871794873,4137.94871794872,4191.282051282053,4198.46153846154,4202.051282051283,4195.384615384617,4208.20512820513,4143.589743589745,4176.923076923078,0.0,2042.0,2038.0,0.0,0.0,4.0,4.0,4.0,4.0,0.0,4.0,4.0,4.0,4.0,3.0,4.0,4.0,4.0,4.0,4.0,4.0
30.0,0.0,4155.897435897437,4182.564102564104,4177.435897435899,4175.897435897437,4181.538461538463,4188.71794871795,4210.256410256412,4183.076923076925,4190.769230769232,4199.487179487181,4186.666666666668,4198.46153846154,4138.97435897436,4165.641025641027,0.0,2044.0,2038.0,0.0,0.0,4.0,4.0,4.0,4.0,0.0,4.0,4.0,4.0,4.0,3.0,4.0,4.0,4.0,4.0,4.0,4.0
31.0,0.0,4160.512820512822,4187.692307692309,4181.0256410256425,4182.051282051283,4178.46153846154,4188.71794871795,4230.769230769232,4190.256410256412,4197.94871794872,4204.102564102565,4188.71794871795,4205.641025641027,4154.3589743589755,4172.307692307694,0.0,2044.0,2040.0,0.0,0.0,4.0,4.0,4.0,4.0,0.0,4.0,4.0,4.0,4.0,3.0,4.0,4.0,4.0,4.0,4.0,4.0
32.0,0.0,4160.512820512822,4184.102564102565,4173.846153846155,4187.179487179489,4181.0256410256425,4193.333333333335,4220.512820512822,4190.256410256412,4199.487179487181,4207.179487179489,4189.743589743592,4210.769230769232,4150.256410256412,4180.000000000002,0.0,2044.0,2040.0,0.0,0.0,4.0,4.0,4.0,4.0,0.0,4.0,4.0,4.0,4.0,3.0,4.0,4.0,4.0,4.0,4.0,4.0
33.0,0.0,4157.94871794872,4174.871794871797,4166.666666666668,4184.615384615386,4186.153846153848,4191.282051282053,4226.666666666668,4183.076923076925,4194.3589743589755,4202.564102564104,4189.23076923077,4204.102564102565,4142.051282051283,4177.435897435899,0.0,2047.0,2041.0,0.0,0.0,4.0,4.0,4.0,4.0,0.0,4.0,4.0,4.0,4.0,3.0,4.0,4.0,4.0,4.0,4.0,4.0
34.0,0.0,4160.512820512822,4188.71794871795,4171.282051282053,4183.589743589745,4183.076923076925,4181.0256410256425,4233.333333333335,4189.743589743592,4195.897435897437,4197.94871794872,4194.3589743589755,4204.615384615386,4154.871794871797,4177.435897435899,0.0,2045.0,2042.0,0.0,0.0,4.0,4.0,4.0,4.0,0.0,4.0,4.0,4.0,4.0,3.0,4.0,4.0,4.0,4.0,4.0,4.0
35.0,0.0,4161.538461538463,4201.538461538463,4177.94871794872,4185.128205128207,4183.076923076925,4181.538461538463,4221.0256410256425,4198.97435897436,4200.000000000002,4202.051282051283,4197.435897435899,4207.692307692309,4155.384615384617,4185.641025641027,0.0,2046.0,2042.0,0.0,0.0,4.0,4.0,4.0,4.0,0.0,4.0,4.0,4.0,4.0,3.0,4.0,4.0,4.0,4.0,4.0,4.0
36.0,0.0,4160.000000000002,4189.23076923077,4180.000000000002,4186.666666666668,4184.102564102565,4187.692307692309,4219.487179487181,4197.435897435899,4198.97435897436,4207.692307692309,4193.333333333335,4203.076923076925,4143.076923076925,4184.615384615386,0.0,2047.0,2044.0,0.0,0.0,4.0,4.0,4.0,4.0,0.0,4.0,4.0,4.0,4.0,3.0,4.0,4.0,4.0,4.0,4.0,4.0
37.0,0.0,4154.871794871797,4175.897435897437,4176.923076923078,4175.897435897437,4184.102564102565,4184.102564102565,4214.3589743589755,4183.589743589745,4190.256410256412,4205.641025641027,4185.128205128207,4194.871794871797,4137.435897435899,4173.846153846155,0.0,2047.0,2045.0,0.0,0.0,4.0,4.0,4.0,4.0,0.0,4.0,4.0,4.0,4.0,3.0,4.0,4.0,4.0,4.0,4.0,4.0
38.0,0.0,4145.128205128207,4173.333333333335,4167.179487179489,4162.051282051283,4184.615384615386,4175.384615384617,4178.46153846154,4169.23076923077,4181.0256410256425,4200.000000000002,4175.897435897437,4188.20512820513,4132.307692307694,4163.589743589745,0.0,2048.0,2045.0,0.0,0.0,4.0,4.0,4.0,4.0,0.0,4.0,4.0,4.0,4.0,3.0,4.0,4.0,4.0,4.0,4.0,4.0
39.0,0.0,4145.641025641027,4167.692307692309,4162.564102564104,4169.23076923077,4181.538461538463,4175.897435897437,4155.384615384617,4173.333333333335,4181.0256410256425,4197.435897435899,4174.871794871797,4188.71794871795,4130.769230769232,4162.051282051283,0.0,2046.0,2045.0,0.0,0.0,4.0,4.0,4.0,4.0,0.0,4.0,4.0,4.0,4.0,3.0,4.0,4.0,4.0,4.0,4.0,4.0
40.0,0.0,4156.410256410258,4166.666666666668,4171.282051282053,4174.3589743589755,4184.615384615386,4185.641025641027,4159.487179487181,4187.692307692309,4188.20512820513,4201.0256410256425,4185.128205128207,4200.000000000002,4140.000000000002,4174.871794871797,0.0,2046.0,2044.0,0.0,0.0,4.0,4.0,4.0,4.0,0.0,4.0,4.0,4.0,4.0,3.0,4.0,4.0,4.0,4.0,4.0,4.0
41.0,0.0,4155.897435897437,4178.46153846154,4174.871794871797,4169.743589743592,4185.128205128207,4186.153846153848,4153.333333333335,4188.20512820513,4191.794871794873,4206.153846153848,4189.743589743592,4206.666666666668,4147.179487179489,4189.23076923077,0.0,2046.0,2046.0,0.0,0.0,4.0,4.0,4.0,4.0,0.0,4.0,4.0,4.0,4.0,3.0,4.0,4.0,4.0,4.0,4.0,4.0
42.0,0.0,4154.871794871797,4182.564102564104,4173.333333333335,4177.94871794872,4181.0256410256425,4180.000000000002,4136.923076923078,4182.564102564104,4192.307692307694,4206.153846153848,4188.20512820513,4206.666666666668,4146.666666666668,4195.384615384617,0.0,2047.0,2046.0,0.0,0.0,4.0,4.0,4.0,4.0,0.0,4.0,4.0,4.0,4.0,3.0,4.0,4.0,4.0,4.0,4.0,4.0
43.0,0.0,4160.000000000002,4173.846153846155,4173.333333333335,4185.641025641027,4184.102564102565,4181.538461538463,4127.692307692309,4184.102564102565,4192.307692307694,4203.589743589745,4189.23076923077,4205.641025641027,4145.128205128207,4185.641025641027,0.0,2046.0,2047.0,0.0,0.0,4.0,4.0,4.0,4.0,0.0,4.0,4.0,4.0,4.0,3.0,4.0,4.0,4.0,4.0,4.0,4.0
44.0,0.0,4141.538461538463,4154.871794871797,4158.97435897436,4165.128205128207,4183.076923076925,4175.897435897437,4135.897435897437,4174.3589743589755,4180.000000000002,4197.435897435899,4176.410256410258,4185.128205128207,4133.846153846155,4160.512820512822,0.0,2046.0,2053.0,0.0,0.0,4.0,4.0,4.0,4.0,0.0,4.0,4.0,4.0,4.0,3.0,4.0,4.0,4.0,4.0,4.0,4.0
45.0,0.0,4127.179487179489,4148.20512820513,4148.20512820513,4143.076923076925,4182.564102564104,4169.23076923077,4168.71794871795,4162.564102564104,4170.769230769232,4194.871794871797,4163.076923076925,4169.23076923077,4125.128205128207,4156.410256410258,0.0,2045.0,2053.0,0.0,0.0,4.0,4.0,4.0,4.0,0.0,4.0,4.0,4.0,4.0,3.0,4.0,4.0,4.0,4.0,4.0,4.0
46.0,0.0,4142.564102564104,4177.94871794872,4154.871794871797,4151.794871794873,4182.564102564104,4181.538461538463,4182.051282051283,4172.8205128205145,4181.0256410256425,4197.94871794872,4171.794871794873,4184.615384615386,4132.307692307694,4172.307692307694,0.0,2046.0,2052.0,0.0,0.0,4.0,4.0,4.0,4.0,0.0,4.0,4.0,4.0,4.0,3.0,4.0,4.0,4.0,4.0,4.0,4.0
47.0,0.0,4157.435897435899,4217.435897435899,4158.46153846154,4169.743589743592,4183.076923076925,4191.794871794873,4162.051282051283,4186.666666666668,4196.410256410258,4202.564102564104,4187.692307692309,4202.564102564104,4142.051282051283,4175.384615384617,0.0,2046.0,2053.0,0.0,0.0,4.0,4.0,4.0,4.0,0.0,4.0,4.0,4.0,4.0,3.0,4.0,4.0,4.0,4.0,4.0,4.0
48.0,0.0,4154.3589743589755,4228.71794871795,4157.94871794872,4176.923076923078,4186.153846153848,4187.179487179489,4154.871794871797,4188.20512820513,4200.000000000002,4204.102564102565,4192.307692307694,4201.538461538463,4147.179487179489,4172.307692307694,0.0,2044.0,2054.0,0.0,0.0,4.0,4.0,4.0,4.0,0.0,4.0,4.0,4.0,4.0,3.0,4.0,4.0,4.0,4.0,4.0,4.0
49.0,0.0,4145.641025641027,4214.3589743589755,4152.307692307694,4174.3589743589755,4183.589743589745,4182.051282051283,4137.94871794872,4180.000000000002,4190.769230769232,4199.487179487181,4186.666666666668,4192.307692307694,4148.20512820513,4172.8205128205145,0.0,2046.0,2053.0,0.0,0.0,4.0,4.0,4.0,4.0,0.0,4.0,4.0,4.0,4.0,3.0,4.0,4.0,4.0,4.0,4.0,4.0
50.0,0.0,4153.333333333335,4214.3589743589755,4154.871794871797,4175.384615384617,4184.102564102565,4181.0256410256425,4086.6666666666683,4181.0256410256425,4192.8205128205145,4201.0256410256425,4190.256410256412,4198.97435897436,4152.307692307694,4180.512820512822,0.0,2044.0,2053.0,0.0,0.0,4.0,4.0,4.0,4.0,0.0,4.0,4.0,4.0,4.0,3.0,4.0,4.0,4.0,4.0,4.0,4.0
51.0,0.0,4169.743589743592,4233.846153846155,4166.153846153848,4181.538461538463,4184.615384615386,4176.410256410258,4082.0512820512836,4190.256410256412,4205.641025641027,4212.307692307694,4201.538461538463,4211.794871794873,4157.94871794872,4194.871794871797,0.0,2044.0,2053.0,0.0,0.0,4.0,4.0,4.0,4.0,0.0,4.0,4.0,4.0,4.0,3.0,4.0,4.0,4.0,4.0,4.0,4.0
52.0,0.0,4166.153846153848,4231.282051282053,4165.641025641027,4174.3589743589755,4182.051282051283,4173.846153846155,4126.666666666668,4185.641025641027,4203.076923076925,4212.8205128205145,4199.487179487181,4206.666666666668,4158.97435897436,4193.846153846155,0.0,2045.0,2052.0,0.0,0.0,4.0,4.0,4.0,4.0,0.0,4.0,4.0,4.0,4.0,3.0,4.0,4.0,4.0,4.0,4.0,4.0
53.0,0.0,4160.000000000002,4215.384615384617,4162.564102564104,4166.666666666668,4184.102564102565,4180.000000000002,4124.615384615386,4175.384615384617,4196.410256410258,4204.102564102565,4193.846153846155,4202.564102564104,4160.512820512822,4188.20512820513,0.0,2046.0,2053.0,0.0,0.0,4.0,4.0,4.0,4.0,0.0,4.0,4.0,4.0,4.0,3.0,4.0,4.0,4.0,4.0,4.0,4.0
54.0,0.0,4172.307692307694,4217.435897435899,4167.179487179489,4176.923076923078,4181.0256410256425,4184.102564102565,4113.333333333335,4183.076923076925,4205.641025641027,4208.20512820513,4203.589743589745,4217.435897435899,4167.179487179489,4197.94871794872,0.0,2045.0,2053.0,0.0,0.0,4.0,4.0,4.0,4.0,0.0,4.0,4.0,4.0,4.0,3.0,4.0,4.0,4.0,4.0,4.0,4.0
55.0,0.0,4178.46153846154,4224.615384615386,4170.769230769232,4192.307692307694,4182.564102564104,4183.076923076925,4143.589743589745,4192.8205128205145,4214.871794871797,4211.282051282053,4209.743589743592,4225.641025641027,4172.8205128205145,4201.538461538463,0.0,2045.0,2050.0,0.0,0.0,4.0,4.0,4.0,4.0,0.0,4.0,4.0,4.0,4.0,3.0,4.0,4.0,4.0,4.0,4.0,4.0
56.0,0.0,4174.871794871797,4228.20512820513,4169.23076923077,4186.666666666668,4185.641025641027,4180.000000000002,4139.487179487181,4189.743589743592,4210.769230769232,4207.692307692309,4205.641025641027,4216.410256410258,4171.794871794873,4191.282051282053,0.0,2044.0,2051.0,0.0,0.0,4.0,4.0,4.0,4.0,0.0,4.0,4.0,4.0,4.0,3.0,4.0,4.0,4.0,4.0,4.0,4.0
57.0,0.0,4173.333333333335,4235.384615384617,4164.102564102565,4174.3589743589755,4182.564102564104,4176.923076923078,4097.94871794872,4185.641025641027,4207.179487179489,4208.20512820513,4206.153846153848,4209.743589743592,4165.128205128207,4188.20512820513,0.0,2043.0,2051.0,0.0,0.0,4.0,4.0,4.0,4.0,0.0,4.0,4.0,4.0,4.0,3.0,4.0,4.0,4.0,4.0,4.0,4.0
58.0,0.0,4171.282051282053,4236.923076923078,4163.589743589745,4183.076923076925,4184.102564102565,4178.97435897436,4117.435897435899,4185.128205128207,4207.179487179489,4212.307692307694,4205.641025641027,4208.20512820513,4162.564102564104,4192.307692307694,0.0,2043.0,2052.0,0.0,0.0,4.0,4.0,4.0,4.0,0.0,4.0,4.0,4.0,4.0,3.0,4.0,4.0,4.0,4.0,4.0,4.0
59.0,0.0,4172.307692307694,4230.256410256412,4167.692307692309,4193.333333333335,4183.589743589745,4180.000000000002,4151.794871794873,4186.153846153848,4204.615384615386,4211.794871794873,4200.000000000002,4210.769230769232,4167.179487179489,4196.923076923078,0.0,2041.0,2052.0,0.0,0.0,4.0,4.0,4.0,4.0,0.0,4.0,4.0,4.0,4.0,3.0,4.0,4.0,4.0,4.0,4.0,4.0
60.0,0.0,4174.871794871797,4221.538461538463,4170.256410256412,4186.666666666668,4183.589743589745,4176.923076923078,4081.0256410256425,4180.000000000002,4199.487179487181,4207.179487179489,4194.3589743589755,4212.8205128205145,4163.589743589745,4201.0256410256425,0.0,2039.0,2053.0,0.0,0.0,4.0,4.0,4.0,4.0,0.0,4.0,4.0,4.0,4.0,3.0,4.0,4.0,4.0,4.0,4.0,4.0
61.0,0.0,4175.897435897437,4217.94871794872,4171.794871794873,4182.564102564104,4184.615384615386,4175.384615384617,3982.564102564104,4175.897435897437,4196.410256410258,4205.128205128207,4194.871794871797,4216.923076923078,4163.076923076925,4200.512820512822,0.0,2038.0,2054.0,0.0,0.0,4.0,4.0,4.0,4.0,0.0,4.0,4.0,4.0,4.0,3.0,4.0,4.0,4.0,4.0,4.0,4.0
62.0,0.0,4175.897435897437,4223.076923076925,4171.794871794873,4181.538461538463,4182.051282051283,4176.923076923078,3991.2820512820526,4180.512820512822,4199.487179487181,4207.179487179489,4196.410256410258,4221.0256410256425,4172.307692307694,4196.923076923078,0.0,2037.0,2052.0,0.0,0.0,4.0,4.0,4.0,4.0,0.0,4.0,4.0,4.0,4.0,3.0,4.0,4.0,4.0,4.0,4.0,4.0
63.0,0.0,4169.743589743592,4224.615384615386,4166.666666666668,4171.282051282053,4184.615384615386,4176.923076923078,4072.8205128205145,4171.282051282053,4190.769230769232,4206.153846153848,4185.641025641027,4209.23076923077,4158.97435897436,4190.769230769232,0.0,2037.0,2052.0,0.0,0.0,4.0,4.0,4.0,4.0,0.0,4.0,4.0,4.0,4.0,3.0,4.0,4.0,4.0,4.0,4.0,4.0
64.0,0.0,4168.71794871795,4217.435897435899,4168.20512820513,4171.282051282053,4184.102564102565,4174.871794871797,4122.564102564104,4159.487179487181,4182.051282051283,4200.000000000002,4180.512820512822,4204.615384615386,4144.615384615386,4190.769230769232,810.0,2037.0,2055.0,0.0,0.0,4.0,4.0,4.0,4.0,0.0,4.0,4.0,4.0,4.0,3.0,4.0,4.0,4.0,4.0,4.0,4.0
65.0,0.0,4185.641025641027,4230.256410256412,4184.615384615386,4185.128205128207,4185.128205128207,4178.46153846154,4165.128205128207,4176.923076923078,4198.46153846154,4202.051282051283,4199.487179487181,4222.051282051283,4164.102564102565,4200.512820512822,847.0,2038.0,2055.0,0.0,0.0,4.0,4.0,4.0,4.0,0.0,4.0,4.0,4.0,4.0,3.0,4.0,4.0,4.0,4.0,4.0,4.0
66.0,0.0,4192.307692307694,4244.102564102565,4186.666666666668,4193.333333333335,4187.179487179489,4181.538461538463,4214.3589743589755,4191.282051282053,4208.71794871795,4208.71794871795,4208.20512820513,4229.23076923077,4177.94871794872,4200.512820512822,841.0,2037.0,2056.0,0.0,0.0,4.0,4.0,4.0,4.0,0.0,4.0,4.0,4.0,4.0,3.0,4.0,4.0,4.0,4.0,4.0,4.0
67.0,0.0,4180.512820512822,4226.153846153848,4172.307692307694,4194.3589743589755,4181.538461538463,4178.46153846154,4201.538461538463,4181.0256410256425,4198.46153846154,4208.71794871795,4197.435897435899,4220.512820512822,4166.666666666668,4193.333333333335,836.0,2037.0,2055.0,0.0,0.0,4.0,4.0,4.0,4.0,0.0,4.0,4.0,4.0,4.0,3.0,4.0,4.0,4.0,4.0,4.0,4.0
68.0,0.0,4177.435897435899,4213.333333333335,4172.307692307694,4190.256410256412,4184.102564102565,4181.0256410256425,4158.97435897436,4175.897435897437,4199.487179487181,4206.153846153848,4197.435897435899,4218.46153846154,4163.076923076925,4196.923076923078,0.0,2038.0,2055.0,0.0,0.0,4.0,4.0,4.0,4.0,0.0,4.0,4.0,4.0,4.0,3.0,4.0,4.0,4.0,4.0,4.0,4.0
69.0,0.0,4180.512820512822,4226.153846153848,4175.897435897437,4182.051282051283,4184.615384615386,4184.102564102565,4135.384615384617,4176.410256410258,4201.538461538463,4202.051282051283,4201.538461538463,4215.897435897437,4160.000000000002,4198.46153846154,639.0,2037.0,2055.0,0.0,0.0,4.0,4.0,4.0,4.0,0.0,4.0,4.0,4.0,4.0,3.0,4.0,4.0,4.0,4.0,4.0,4.0
70.0,0.0,4177.94871794872,4228.71794871795,4172.8205128205145,4185.128205128207,4182.564102564104,4178.97435897436,4130.769230769232,4170.256410256412,4192.8205128205145,4201.538461538463,4193.846153846155,4209.23076923077,4153.846153846155,4193.333333333335,796.0,2037.0,2055.0,0.0,0.0,4.0,4.0,4.0,4.0,0.0,4.0,4.0,4.0,4.0,3.0,4.0,4.0,4.0,4.0,4.0,4.0
71.0,0.0,4178.46153846154,4221.0256410256425,4173.333333333335,4186.153846153848,4186.153846153848,4171.282051282053,4162.051282051283,4168.71794871795,4193.846153846155,4205.641025641027,4193.333333333335,4209.23076923077,4155.897435897437,4195.384615384617,870.0,2036.0,2055.0,0.0,0.0,4.0,4.0,4.0,4.0,0.0,4.0,4.0,4.0,4.0,3.0,4.0,4.0,4.0,4.0,4.0,4.0
72.0,0.0,4176.923076923078,4218.97435897436,4171.282051282053,4178.97435897436,4182.564102564104,4171.282051282053,4182.051282051283,4172.8205128205145,4195.384615384617,4205.641025641027,4194.3589743589755,4207.179487179489,4156.410256410258,4193.333333333335,759.0,2037.0,2055.0,0.0,0.0,4.0,4.0,4.0,4.0,0.0,4.0,4.0,4.0,4.0,3.0,4.0,4.0,4.0,4.0,4.0,4.0
73.0,0.0,4175.897435897437,4221.538461538463,4172.307692307694,4185.128205128207,4182.564102564104,4177.94871794872,4137.94871794872,4175.384615384617,4193.333333333335,4204.615384615386,4193.333333333335,4208.20512820513,4155.897435897437,4191.282051282053,227.0,2037.0,2053.0,0.0,0.0,4.0,4.0,4.0,4.0,0.0,4.0,4.0,4.0,4.0,3.0,4.0,4.0,4.0,4.0,4.0,4.0
74.0,0.0,4175.897435897437,4227.692307692309,4169.743589743592,4187.179487179489,4183.589743589745,4173.333333333335,4116.410256410258,4172.307692307694,4195.897435897437,4204.615384615386,4191.282051282053,4204.615384615386,4158.97435897436,4189.743589743592,859.0,2039.0,2053.0,0.0,0.0,4.0,4.0,4.0,4.0,0.0,4.0,4.0,4.0,4.0,3.0,4.0,4.0,4.0,4.0,4.0,4.0
75.0,0.0,4174.3589743589755,4229.23076923077,4160.512820512822,4174.871794871797,4181.0256410256425,4168.20512820513,4173.333333333335,4168.71794871795,4193.333333333335,4205.128205128207,4187.179487179489,4197.435897435899,4156.923076923078,4175.897435897437,827.0,2041.0,2050.0,0.0,0.0,4.0,4.0,4.0,4.0,0.0,4.0,4.0,4.0,4.0,3.0,4.0,4.0,4.0,4.0,4.0,4.0
76.0,0.0,4178.46153846154,4221.538461538463,4165.641025641027,4174.3589743589755,4183.589743589745,4175.897435897437,4196.410256410258,4170.256410256412,4190.256410256412,4203.076923076925,4186.153846153848,4202.564102564104,4153.846153846155,4174.3589743589755,848.0,2041.0,2049.0,0.0,0.0,4.0,4.0,4.0,4.0,0.0,4.0,4.0,4.0,4.0,3.0,4.0,4.0,4.0,4.0,4.0,4.0
77.0,0.0,4181.0256410256425,4216.923076923078,4172.8205128205145,4185.128205128207,4182.564102564104,4176.923076923078,4176.410256410258,4171.794871794873,4192.307692307694,4200.512820512822,4185.128205128207,4205.128205128207,4153.846153846155,4187.692307692309,847.0,2041.0,2046.0,0.0,0.0,4.0,4.0,4.0,4.0,0.0,4.0,4.0,4.0,4.0,3.0,4.0,4.0,4.0,4.0,4.0,4.0
78.0,0.0,4180.000000000002,4214.871794871797,4171.282051282053,4190.769230769232,4182.564102564104,4175.384615384617,4212.307692307694,4169.23076923077,4191.794871794873,4202.051282051283,4181.538461538463,4202.051282051283,4149.23076923077,4189.23076923077,859.0,2042.0,2044.0,0.0,0.0,4.0,4.0,4.0,4.0,0.0,4.0,4.0,4.0,4.0,3.0,4.0,4.0,4.0,4.0,4.0,4.0
79.0,0.0,4170.769230769232,4206.153846153848,4162.051282051283,4177.435897435899,4182.051282051283,4175.384615384617,4238.46153846154,4169.23076923077,4184.615384615386,4204.615384615386,4177.94871794872,4198.46153846154,4142.564102564104,4177.435897435899,827.0,2042.0,2041.0,0.0,0.0,4.0,4.0,4.0,4.0,0.0,4.0,4.0,4.0,4.0,3.0,4.0,4.0,4.0,4.0,4.0,4.0
80.0,0.0,4160.000000000002,4202.564102564104,4154.3589743589755,4159.487179487181,4181.0256410256425,4171.794871794873,4186.153846153848,4168.71794871795,4178.46153846154,4201.538461538463,4173.333333333335,4190.256410256412,4140.000000000002,4169.743589743592,848.0,2042.0,2041.0,0.0,0.0,4.0,4.0,4.0,4.0,0.0,4.0,4.0,4.0,4.0,3.0,4.0,4.0,4.0,4.0,4.0,4.0
81.0,0.0,4168.71794871795,4209.23076923077,4165.128205128207,4170.769230769232,4183.589743589745,4171.794871794873,4153.333333333335,4167.692307692309,4187.692307692309,4201.538461538463,4179.487179487181,4192.8205128205145,4145.641025641027,4177.94871794872,847.0,2042.0,2036.0,0.0,0.0,4.0,4.0,4.0,4.0,0.0,4.0,4.0,4.0,4.0,3.0,4.0,4.0,4.0,4.0,4.0,4.0
82.0,0.0,4186.153846153848,4220.000000000002,4178.97435897436,4197.435897435899,4184.102564102565,4178.46153846154,4186.666666666668,4178.46153846154,4202.564102564104,4207.692307692309,4193.846153846155,4207.179487179489,4158.97435897436,4190.256410256412,859.0,2044.0,2036.0,0.0,0.0,4.0,4.0,4.0,4.0,0.0,4.0,4.0,4.0,4.0,3.0,4.0,4.0,4.0,4.0,4.0,4.0
83.0,0.0,4194.871794871797,4235.384615384617,4184.615384615386,4209.743589743592,4187.692307692309,4184.615384615386,4216.923076923078,4195.384615384617,4211.794871794873,4210.769230769232,4207.179487179489,4217.94871794872,4171.282051282053,4198.97435897436,827.0,2045.0,2038.0,0.0,0.0,4.0,4.0,4.0,4.0,0.0,4.0,4.0,4.0,4.0,3.0,4.0,4.0,4.0,4.0,4.0,4.0
84.0,0.0,4188.20512820513,4237.94871794872,4183.076923076925,4202.051282051283,4186.153846153848,4181.538461538463,4224.615384615386,4194.871794871797,4212.307692307694,4211.282051282053,4205.641025641027,4216.923076923078,4169.23076923077,4189.23076923077,848.0,2045.0,2036.0,0.0,0.0,4.0,4.0,4.0,4.0,0.0,4.0,4.0,4.0,4.0,3.0,4.0,4.0,4.0,4.0,4.0,4.0
85.0,0.0,4173.333333333335,4221.0256410256425,4174.871794871797,4184.102564102565,4183.076923076925,4176.410256410258,4228.71794871795,4178.97435897436,4202.051282051283,4207.179487179489,4190.769230769232,4205.128205128207,4156.410256410258,4169.23076923077,847.0,2046.0,2034.0,0.0,0.0,4.0,4.0,4.0,4.0,0.0,4.0,4.0,4.0,4.0,3.0,4.0,4.0,4.0,4.0,4.0,4.0
86.0,0.0,4174.3589743589755,4212.8205128205145,4174.3589743589755,4179.487179487181,4187.179487179489,4178.97435897436,4206.666666666668,4172.307692307694,4197.94871794872,4204.102564102565,4188.20512820513,4200.512820512822,4152.8205128205145,4175.384615384617,859.0,2047.0,2034.0,0.0,0.0,4.0,4.0,4.0,4.0,0.0,4.0,4.0,4.0,4.0,3.0,4.0,4.0,4.0,4.0,4.0,4.0
87.0,0.0,4184.102564102565,4221.538461538463,4177.435897435899,4186.153846153848,4182.051282051283,4178.46153846154,4186.666666666668,4176.923076923078,4203.589743589745,4208.71794871795,4197.435897435899,4206.666666666668,4155.384615384617,4193.333333333335,827.0,2047.0,2034.0,0.0,0.0,4.0,4.0,4.0,4.0,0.0,4.0,4.0,4.0,4.0,3.0,4.0,4.0,4.0,4.0,4.0,4.0
88.0,0.0,4175.897435897437,4220.512820512822,4169.23076923077,4176.410256410258,4181.0256410256425,4172.8205128205145,4204.102564102565,4172.307692307694,4199.487179487181,4209.23076923077,4191.794871794873,4202.564102564104,4147.179487179489,4182.564102564104,848.0,2048.0,2034.0,0.0,0.0,4.0,4.0,4.0,4.0,0.0,4.0,4.0,4.0,4.0,3.0,4.0,4.0,4.0,4.0,4.0,4.0
89.0,0.0,4160.512820512822,4197.435897435899,4156.410256410258,4168.20512820513,4186.153846153848,4172.307692307694,4156.923076923078,4162.051282051283,4187.179487179489,4201.0256410256425,4173.333333333335,4190.256410256412,4133.333333333335,4160.000000000002,847.0,2048.0,2034.0,0.0,0.0,4.0,4.0,4.0,4.0,0.0,4.0,4.0,4.0,4.0,3.0,4.0,4.0,4.0,4.0,4.0,4.0
90.0,0.0,4165.128205128207,4194.3589743589755,4157.435897435899,4184.615384615386,4183.076923076925,4178.46153846154,4048.71794871795,4169.23076923077,4191.794871794873,4198.46153846154,4173.846153846155,4193.333333333335,4138.46153846154,4166.666666666668,859.0,2048.0,2032.0,0.0,0.0,4.0,4.0,4.0,4.0,0.0,4.0,4.0,4.0,4.0,3.0,4.0,4.0,4.0,4.0,4.0,4.0
91.0,0.0,4176.923076923078,4226.153846153848,4173.333333333335,4190.256410256412,4182.051282051283,4182.564102564104,4071.7948717948734,4187.179487179489,4207.179487179489,4206.666666666668,4191.794871794873,4210.256410256412,4155.384615384617,4190.256410256412,827.0,2047.0,2033.0,0.0,0.0,4.0,4.0,4.0,4.0,0.0,4.0,4.0,4.0,4.0,3.0,4.0,4.0,4.0,4.0,4.0,4.0
92.0,0.0,4177.435897435899,4233.846153846155,4181.0256410256425,4180.512820512822,4182.564102564104,4178.46153846154,4186.666666666668,4187.692307692309,4207.179487179489,4207.179487179489,4194.871794871797,4214.3589743589755,4156.410256410258,4187.692307692309,848.0,2048.0,2031.0,0.0,0.0,4.0,4.0,4.0,4.0,0.0,4.0,4.0,4.0,4.0,3.0,4.0,4.0,4.0,4.0,4.0,4.0
93.0,0.0,4183.076923076925,4216.923076923078,4183.076923076925,4188.20512820513,4184.615384615386,4180.000000000002,4203.589743589745,4180.512820512822,4203.076923076925,4203.589743589745,4191.282051282053,4211.282051282053,4151.794871794873,4178.46153846154,847.0,2048.0,2029.0,0.0,0.0,4.0,4.0,4.0,4.0,0.0,4.0,4.0,4.0,4.0,3.0,4.0,4.0,4.0,4.0,4.0,4.0
94.0,0.0,4192.307692307694,4217.435897435899,4189.743589743592,4195.384615384617,4184.615384615386,4184.615384615386,4166.153846153848,4189.23076923077,4206.666666666668,4207.179487179489,4196.923076923078,4214.3589743589755,4157.435897435899,4188.20512820513,859.0,2046.0,2028.0,0.0,0.0,4.0,4.0,4.0,4.0,0.0,4.0,4.0,4.0,4.0,3.0,4.0,4.0,4.0,4.0,4.0,4.0
95.0,0.0,4180.512820512822,4216.923076923078,4184.615384615386,4183.076923076925,4178.46153846154,4178.97435897436,4162.051282051283,4180.512820512822,4199.487179487181,4204.615384615386,4188.20512820513,4207.692307692309,4149.23076923077,4186.153846153848,827.0,2045.0,2028.0,0.0,0.0,4.0,4.0,4.0,4.0,0.0,4.0,4.0,4.0,4.0,3.0,4.0,4.0,4.0,4.0,4.0,4.0
96.0,0.0,4171.794871794873,4206.666666666668,4176.410256410258,4180.512820512822,4181.538461538463,4175.897435897437,4185.641025641027,4153.333333333335,4188.20512820513,4200.000000000002,4173.846153846155,4198.97435897436,4132.307692307694,4174.871794871797,848.0,2046.0,2029.0,0.0,0.0,4.0,4.0,4.0,4.0,0.0,4.0,4.0,4.0,4.0,3.0,4.0,4.0,4.0,4.0,4.0,4.0
97.0,0.0,4190.256410256412,4221.0256410256425,4185.641025641027,4196.923076923078,4183.589743589745,4178.46153846154,4205.641025641027,4156.410256410258,4191.794871794873,4204.615384615386,4181.538461538463,4208.20512820513,4141.538461538463,4185.128205128207,847.0,2046.0,2029.0,0.0,0.0,4.0,4.0,4.0,4.0,0.0,4.0,4.0,4.0,4.0,3.0,4.0,4.0,4.0,4.0,4.0,4.0
98.0,0.0,4198.97435897436,4234.3589743589755,4195.897435897437,4205.128205128207,4181.0256410256425,4177.435897435899,4168.71794871795,4172.307692307694,4198.46153846154,4207.692307692309,4189.23076923077,4219.487179487181,4156.410256410258,4196.410256410258,859.0,2045.0,2029.0,0.0,0.0,4.0,4.0,4.0,4.0,0.0,4.0,4.0,4.0,4.0,3.0,4.0,4.0,4.0,4.0,4.0,4.0
99.0,0.0,4189.23076923077,4220.000000000002,4193.333333333335,4204.102564102565,4183.076923076925,4178.46153846154,4143.589743589745,4168.20512820513,4197.435897435899,4204.615384615386,4186.666666666668,4215.384615384617,4153.846153846155,4193.333333333335,827.0,2044.0,2030.0,0.0,0.0,4.0,4.0,4.0,4.0,0.0,4.0,4.0,4.0,4.0,3.0,4.0,4.0,4.0,4.0,4.0,4.0
100.0,0.0,4191.794871794873,4217.94871794872,4186.153846153848,4200.512820512822,4183.076923076925,4179.487179487181,4192.8205128205145,4166.666666666668,4197.435897435899,4206.153846153848,4190.769230769232,4211.794871794873,4154.3589743589755,4189.23076923077,848.0,2044.0,2030.0,0.0,0.0,4.0,4.0,4.0,4.0,0.0,4.0,4.0,4.0,4.0,3.0,4.0,4.0,4.0,4.0,4.0,4.0
101.0,0.0,4192.8205128205145,4223.589743589745,4181.538461538463,4186.153846153848,4184.102564102565,4176.923076923078,4169.743589743592,4170.769230769232,4195.384615384617,4206.666666666668,4187.692307692309,4209.743589743592,4151.794871794873,4179.487179487181,847.0,2044.0,2032.0,0.0,0.0,4.0,4.0,4.0,4.0,0.0,4.0,4.0,4.0,4.0,3.0,4.0,4.0,4.0,4.0,4.0,4.0
102.0,0.0,4179.487179487181,4206.666666666668,4180.000000000002,4178.46153846154,4180.000000000002,4172.307692307694,4093.846153846155,4163.076923076925,4184.615384615386,4199.487179487181,4174.3589743589755,4203.076923076925,4139.487179487181,4170.769230769232,859.0,2044.0,2031.0,0.0,0.0,4.0,4.0,4.0,4.0,0.0,4.0,4.0,4.0,4.0,3.0,4.0,4.0,4.0,4.0,4.0,4.0
103.0,0.0,4175.897435897437,4194.3589743589755,4183.589743589745,4184.615384615386,4178.46153846154,4171.282051282053,4124.102564102565,4163.589743589745,4181.0256410256425,4199.487179487181,4174.3589743589755,4201.0256410256425,4136.410256410258,4176.410256410258,827.0,2043.0,2030.0,0.0,0.0,4.0,4.0,4.0,4.0,0.0,4.0,4.0,4.0,4.0,3.0,4.0,4.0,4.0,4.0,4.0,4.0
104.0,0.0,4188.20512820513,4211.282051282053,4187.179487179489,4191.282051282053,4184.615384615386,4175.897435897437,4140.000000000002,4180.000000000002,4191.794871794873,4203.589743589745,4183.076923076925,4204.615384615386,4138.97435897436,4188.71794871795,848.0,2044.0,2031.0,0.0,0.0,4.0,4.0,4.0,4.0,0.0,4.0,4.0,4.0,4.0,3.0,4.0,4.0,4.0,4.0,4.0,4.0
105.0,0.0,4193.333333333335,4226.153846153848,4187.692307692309,4194.871794871797,4183.589743589745,4178.97435897436,4081.0256410256425,4185.641025641027,4198.97435897436,4204.615384615386,4189.743589743592,4210.769230769232,4144.615384615386,4191.794871794873,847.0,2044.0,2032.0,0.0,0.0,4.0,4.0,4.0,4.0,0.0,4.0,4.0,4.0,4.0,3.0,4.0,4.0,4.0,4.0,4.0,4.0
106.0,0.0,4194.871794871797,4225.128205128207,4193.846153846155,4203.589743589745,4184.615384615386,4176.923076923078,4115.897435897437,4185.128205128207,4201.0256410256425,4205.641025641027,4195.384615384617,4219.487179487181,4158.97435897436,4193.333333333335,859.0,2044.0,2031.0,0.0,0.0,4.0,4.0,4.0,4.0,0.0,4.0,4.0,4.0,4.0,3.0,4.0,4.0,4.0,4.0,4.0,4.0
107.0,0.0,4195.384615384617,4220.000000000002,4194.871794871797,4203.076923076925,4186.666666666668,4173.333333333335,4191.794871794873,4183.076923076925,4200.000000000002,4203.076923076925,4190.256410256412,4215.897435897437,4158.97435897436,4197.435897435899,827.0,2043.0,2029.0,0.0,0.0,4.0,4.0,4.0,4.0,0.0,4.0,4.0,4.0,4.0,3.0,4.0,4.0,4.0,4.0,4.0,4.0
108.0,0.0,4183.589743589745,4207.692307692309,4183.589743589745,4186.153846153848,4185.128205128207,4172.8205128205145,4173.846153846155,4168.20512820513,4188.71794871795,4200.512820512822,4176.923076923078,4202.051282051283,4137.94871794872,4185.128205128207,848.0,2043.0,2030.0,0.0,0.0,4.0,4.0,4.0,4.0,0.0,4.0,4.0,4.0,4.0,3.0,4.0,4.0,4.0,4.0,4.0,4.0
109.0,0.0,4170.769230769232,4198.97435897436,4174.3589743589755,4178.97435897436,4182.564102564104,4173.846153846155,4142.564102564104,4155.897435897437,4177.435897435899,4200.000000000002,4173.333333333335,4197.435897435899,4129.23076923077,4165.128205128207,847.0,2043.0,2030.0,0.0,0.0,4.0,4.0,4.0,4.0,0.0,4.0,4.0,4.0,4.0,3.0,4.0,4.0,4.0,4.0,4.0,4.0
110.0,0.0,4166.666666666668,4194.871794871797,4171.282051282053,4178.97435897436,4179.487179487181,4171.794871794873,4173.333333333335,4164.102564102565,4179.487179487181,4197.435897435899,4171.794871794873,4197.435897435899,4135.384615384617,4162.051282051283,859.0,2042.0,2030.0,0.0,0.0,4.0,4.0,4.0,4.0,0.0,4.0,4.0,4.0,4.0,3.0,4.0,4.0,4.0,4.0,4.0,4.0
111.0,0.0,4171.794871794873,4196.410256410258,4176.410256410258,4172.307692307694,4183.076923076925,4171.282051282053,4186.153846153848,4171.282051282053,4184.615384615386,4198.46153846154,4171.794871794873,4200.512820512822,4136.410256410258,4176.410256410258,827.0,2043.0,2030.0,0.0,0.0,4.0,4.0,4.0,4.0,0.0,4.0,4.0,4.0,4.0,3.0,4.0,4.0,4.0,4.0,4.0,4.0
112.0,0.0,4179.487179487181,4208.20512820513,4184.102564102565,4174.3589743589755,4182.564102564104,4174.871794871797,4154.871794871797,4166.153846153848,4185.128205128207,4203.589743589745,4178.46153846154,4209.743589743592,4134.3589743589755,4183.589743589745,848.0,2043.0,2031.0,0.0,0.0,4.0,4.0,4.0,4.0,0.0,4.0,4.0,4.0,4.0,3.0,4.0,4.0,4.0,4.0,4.0,4.0
113.0,0.0,4180.000000000002,4212.307692307694,4180.512820512822,4188.71794871795,4179.487179487181,4178.97435897436,4150.769230769232,4168.71794871795,4186.153846153848,4203.589743589745,4181.0256410256425,4212.8205128205145,4136.923076923078,4177.435897435899,847.0,2044.0,2031.0,0.0,0.0,4.0,4.0,4.0,4.0,0.0,4.0,4.0,4.0,4.0,3.0,4.0,4.0,4.0,4.0,4.0,4.0
114.0,0.0,4180.000000000002,4211.282051282053,4177.435897435899,4187.692307692309,4184.615384615386,4179.487179487181,4181.538461538463,4172.8205128205145,4189.23076923077,4200.512820512822,4178.46153846154,4207.692307692309,4142.051282051283,4178.46153846154,859.0,2044.0,2030.0,0.0,0.0,4.0,4.0,4.0,4.0,0.0,4.0,4.0,4.0,4.0,3.0,4.0,4.0,4.0,4.0,4.0,4.0
115.0,0.0,4182.051282051283,4216.923076923078,4182.051282051283,4181.0256410256425,4183.076923076925,4175.897435897437,4172.8205128205145,4171.282051282053,4192.307692307694,4203.076923076925,4181.538461538463,4205.128205128207,4144.615384615386,4185.641025641027,827.0,2044.0,2031.0,0.0,0.0,4.0,4.0,4.0,4.0,0.0,4.0,4.0,4.0,4.0,3.0,4.0,4.0,4.0,4.0,4.0,4.0
116.0,0.0,4183.076923076925,4209.23076923077,4186.666666666668,4189.743589743592,4180.512820512822,4174.3589743589755,4137.94871794872,4170.769230769232,4190.256410256412,4204.615384615386,4182.564102564104,4204.615384615386,4139.487179487181,4185.641025641027,848.0,2043.0,2032.0,0.0,0.0,4.0,4.0,4.0,4.0,0.0,4.0,4.0,4.0,4.0,3.0,4.0,4.0,4.0,4.0,4.0,4.0
117.0,0.0,4184.615384615386,4203.076923076925,4189.743589743592,4190.256410256412,4182.051282051283,4176.923076923078,4189.23076923077,4170.256410256412,4189.743589743592,4201.538461538463,4176.923076923078,4207.179487179489,4137.94871794872,4176.410256410258,847.0,2044.0,2034.0,0.0,0.0,4.0,4.0,4.0,4.0,0.0,4.0,4.0,4.0,4.0,3.0,4.0,4.0,4.0,4.0,4.0,4.0
118.0,0.0,4191.794871794873,4218.97435897436,4194.871794871797,4183.589743589745,4179.487179487181,4178.97435897436,4297.94871794872,4170.769230769232,4194.3589743589755,4201.0256410256425,4181.538461538463,4215.897435897437,4152.8205128205145,4180.000000000002,859.0,2044.0,2034.0,0.0,0.0,4.0,4.0,4.0,4.0,0.0,4.0,4.0,4.0,4.0,3.0,4.0,4.0,4.0,4.0,4.0,4.0
119.0,0.0,4190.769230769232,4221.0256410256425,4191.282051282053,4187.179487179489,4182.564102564104,4178.46153846154,4312.307692307694,4171.282051282053,4195.897435897437,4203.589743589745,4190.256410256412,4216.923076923078,4156.923076923078,4195.384615384617,827.0,2043.0,2036.0,0.0,0.0,4.0,4.0,4.0,4.0,0.0,4.0,4.0,4.0,4.0,3.0,4.0,4.0,4.0,4.0,4.0,4.0
120.0,0.0,4175.384615384617,4203.589743589745,4174.3589743589755,4181.538461538463,4183.589743589745,4175.897435897437,4218.97435897436,4167.179487179489,4187.179487179489,4202.051282051283,4180.512820512822,4204.102564102565,4138.46153846154,4184.102564102565,848.0,2043.0,2035.0,0.0,0.0,4.0,4.0,4.0,4.0,0.0,4.0,4.0,4.0,4.0,3.0,4.0,4.0,4.0,4.0,4.0,4.0
121.0,0.0,4171.282051282053,4201.538461538463,4171.794871794873,4172.8205128205145,4183.589743589745,4175.384615384617,4174.3589743589755,4166.153846153848,4185.641025641027,4201.538461538463,4173.846153846155,4201.538461538463,4134.871794871797,4169.743589743592,847.0,2045.0,2035.0,0.0,0.0,4.0,4.0,4.0,4.0,0.0,4.0,4.0,4.0,4.0,3.0,4.0,4.0,4.0,4.0,4.0,4.0
122.0,0.0,4182.051282051283,4214.871794871797,4184.615384615386,4176.923076923078,4185.641025641027,4175.384615384617,4205.128205128207,4170.769230769232,4192.8205128205145,4203.076923076925,4182.564102564104,4213.846153846155,4146.153846153848,4179.487179487181,859.0,2045.0,2036.0,0.0,0.0,4.0,4.0,4.0,4.0,0.0,4.0,4.0,4.0,4.0,3.0,4.0,4.0,4.0,4.0,4.0,4.0
123.0,0.0,4183.589743589745,4221.538461538463,4185.641025641027,4184.615384615386,4183.589743589745,4175.384615384617,4188.20512820513,4166.666666666668,4189.743589743592,4201.538461538463,4182.564102564104,4214.3589743589755,4143.589743589745,4178.97435897436,827.0,2046.0,2039.0,0.0,0.0,4.0,4.0,4.0,4.0,0.0,4.0,4.0,4.0,4.0,3.0,4.0,4.0,4.0,4.0,4.0,4.0
124.0,0.0,4176.410256410258,4205.641025641027,4179.487179487181,4188.71794871795,4185.128205128207,4174.871794871797,4137.94871794872,4153.846153846155,4183.589743589745,4200.000000000002,4173.333333333335,4203.076923076925,4136.410256410258,4167.179487179489,848.0,2045.0,2038.0,0.0,0.0,4.0,4.0,4.0,4.0,0.0,4.0,4.0,4.0,4.0,3.0,4.0,4.0,4.0,4.0,4.0,4.0
125.0,0.0,4172.307692307694,4188.20512820513,4170.769230769232,4181.0256410256425,4184.615384615386,4173.846153846155,4144.102564102565,4152.307692307694,4182.564102564104,4200.512820512822,4172.8205128205145,4203.076923076925,4142.051282051283,4171.282051282053,847.0,2044.0,2039.0,0.0,0.0,4.0,4.0,4.0,4.0,0.0,4.0,4.0,4.0,4.0,3.0,4.0,4.0,4.0,4.0,4.0,4.0
126.0,0.0,4177.94871794872,4206.666666666668,4168.20512820513,4173.333333333335,4184.615384615386,4173.333333333335,4207.692307692309,4166.153846153848,4187.692307692309,4201.538461538463,4183.076923076925,4216.410256410258,4151.794871794873,4183.589743589745,859.0,2044.0,2039.0,0.0,0.0,4.0,4.0,4.0,4.0,0.0,4.0,4.0,4.0,4.0,3.0,4.0,4.0,4.0,4.0,4.0,4.0
127.0,0.0,4185.128205128207,4223.076923076925,4177.435897435899,4178.97435897436,4186.666666666668,4169.23076923077,4248.71794871795,4171.794871794873,4196.923076923078,4205.128205128207,4188.71794871795,4219.487179487181,4156.410256410258,4183.589743589745,827.0,2043.0,2041.0,0.0,0.0,4.0,4.0,4.0,4.0,0.0,4.0,4.0,4.0,4.0,3.0,4.0,4.0,4.0,4.0,4.0,4.0
128.0,0.0,4180.512820512822,4198.46153846154,4182.564102564104,4187.179487179489,4181.0256410256425,4163.076923076925,4219.487179487181,4160.512820512822,4194.3589743589755,4203.589743589745,4182.051282051283,4211.794871794873,4152.307692307694,4179.487179487181,848.0,2043.0,2043.0,0.0,0.0,4.0,4.0,4.0,4.0,0.0,4.0,4.0,4.0,4.0,3.0,4.0,4.0,4.0,4.0,4.0,4.0
0.0,0.0,4175.897435897437,4194.871794871797,4180.512820512822,4185.128205128207,4181.538461538463,4166.153846153848,4191.282051282053,4156.923076923078,4186.153846153848,4200.512820512822,4178.97435897436,4211.794871794873,4149.23076923077,4177.94871794872,810.0,2043.0,2045.0,0.0,0.0,4.0,4.0,4.0,4.0,0.0,4.0,4.0,4.0,4.0,3.0,4.0,4.0,4.0,4.0,4.0,4.0
1.0,0.0,4182.564102564104,4220.000000000002,4177.94871794872,4182.564102564104,4184.102564102565,4172.307692307694,4223.076923076925,4169.743589743592,4191.282051282053,4206.153846153848,4188.20512820513,4217.94871794872,4157.94871794872,4179.487179487181,854.0,2042.0,2047.0,0.0,0.0,4.0,4.0,4.0,4.0,0.0,4.0,4.0,4.0,4.0,3.0,4.0,4.0,4.0,4.0,4.0,4.0
2.0,0.0,4186.153846153848,4219.487179487181,4172.307692307694,4180.512820512822,4184.102564102565,4174.3589743589755,4266.666666666668,4175.384615384617,4201.538461538463,4210.769230769232,4192.8205128205145,4217.94871794872,4161.538461538463,4183.076923076925,841.0,2043.0,2048.0,0.0,0.0,4.0,4.0,4.0,4.0,0.0,4.0,4.0,4.0,4.0,3.0,4.0,4.0,4.0,4.0,4.0,4.0
3.0,0.0,4175.384615384617,4193.846153846155,4166.153846153848,4174.3589743589755,4185.128205128207,4175.384615384617,4246.153846153848,4163.589743589745,4194.3589743589755,4204.615384615386,4184.615384615386,4208.71794871795,4152.8205128205145,4181.538461538463,836.0,2043.0,2050.0,0.0,0.0,4.0,4.0,4.0,4.0,0.0,4.0,4.0,4.0,4.0,3.0,4.0,4.0,4.0,4.0,4.0,4.0
4.0,0.0,4174.3589743589755,4187.692307692309,4170.769230769232,4180.512820512822,4181.0256410256425,4176.410256410258,4178.46153846154,4160.000000000002,4189.743589743592,4199.487179487181,4184.615384615386,4207.692307692309,4152.8205128205145,4183.076923076925,0.0,2044.0,2051.0,0.0,0.0,4.0,4.0,4.0,4.0,0.0,4.0,4.0,4.0,4.0,3.0,4.0,4.0,4.0,4.0,4.0,4.0
5.0,0.0,4191.282051282053,4215.384615384617,4184.615384615386,4189.23076923077,4183.076923076925,4178.97435897436,4138.46153846154,4171.282051282053,4202.564102564104,4204.615384615386,4196.923076923078,4220.512820512822,4164.102564102565,4192.307692307694,638.0,2045.0,2051.0,0.0,0.0,4.0,4.0,4.0,4.0,0.0,4.0,4.0,4.0,4.0,3.0,4.0,4.0,4.0,4.0,4.0,4.0
6.0,0.0,4191.794871794873,4229.743589743592,4182.564102564104,4187.179487179489,4184.615384615386,4178.97435897436,4151.282051282053,4170.256410256412,4206.666666666668,4210.256410256412,4195.384615384617,4222.051282051283,4168.20512820513,4191.282051282053,796.0,2046.0,2052.0,0.0,0.0,4.0,4.0,4.0,4.0,0.0,4.0,4.0,4.0,4.0,3.0,4.0,4.0,4.0,4.0,4.0,4.0
7.0,0.0,4176.923076923078,4213.333333333335,4167.692307692309,4185.641025641027,4183.076923076925,4174.3589743589755,4173.333333333335,4156.410256410258,4196.410256410258,4205.128205128207,4185.128205128207,4205.641025641027,4162.564102564104,4177.435897435899,868.0,2045.0,2052.0,0.0,0.0,4.0,4.0,4.0,4.0,0.0,4.0,4.0,4.0,4.0,3.0,4.0,4.0,4.0,4.0,4.0,4.0
8.0,0.0,4176.923076923078,4209.743589743592,4164.615384615386,4186.153846153848,4186.153846153848,4174.3589743589755,4160.000000000002,4151.794871794873,4190.769230769232,4203.076923076925,4186.666666666668,4203.589743589745,4157.435897435899,4172.8205128205145,759.0,2044.0,2052.0,0.0,0.0,4.0,4.0,4.0,4.0,0.0,4.0,4.0,4.0,4.0,3.0,4.0,4.0,4.0,4.0,4.0,4.0
9.0,0.0,4181.0256410256425,4214.3589743589755,4165.128205128207,4184.102564102565,4184.615384615386,4175.384615384617,4135.897435897437,4160.000000000002,4192.8205128205145,4206.153846153848,4188.71794871795,4212.307692307694,4155.384615384617,4177.435897435899,227.0,2045.0,2050.0,0.0,0.0,4.0,4.0,4.0,4.0,0.0,4.0,4.0,4.0,4.0,3.0,4.0,4.0,4.0,4.0,4.0,4.0
10.0,0.0,4177.94871794872,4204.102564102565,4164.615384615386,4184.615384615386,4185.641025641027,4178.97435897436,4160.512820512822,4170.769230769232,4201.0256410256425,4206.153846153848,4190.769230769232,4212.307692307694,4155.897435897437,4179.487179487181,859.0,2045.0,2048.0,0.0,0.0,4.0,4.0,4.0,4.0,0.0,4.0,4.0,4.0,4.0,3.0,4.0,4.0,4.0,4.0,4.0,4.0
11.0,0.0,4172.8205128205145,4196.410256410258,4163.076923076925,4186.666666666668,4185.641025641027,4182.051282051283,4194.871794871797,4171.282051282053,4203.076923076925,4206.666666666668,4194.871794871797,4209.23076923077,4155.897435897437,4176.923076923078,826.0,2044.0,2047.0,0.0,0.0,4.0,4.0,4.0,4.0,0.0,4.0,4.0,4.0,4.0,3.0,4.0,4.0,4.0,4.0,4.0,4.0
12.0,0.0,4168.71794871795,4206.666666666668,4157.435897435899,4186.666666666668,4181.0256410256425,4178.46153846154,4161.538461538463,4158.97435897436,4192.8205128205145,4207.179487179489,4186.666666666668,4205.128205128207,4153.846153846155,4175.384615384617,844.0,2044.0,2045.0,0.0,0.0,4.0,4.0,4.0,4.0,0.0,4.0,4.0,4.0,4.0,3.0,4.0,4.0,4.0,4.0,4.0,4.0
13.0,0.0,4177.435897435899,4222.051282051283,4166.153846153848,4186.153846153848,4183.076923076925,4180.000000000002,4123.589743589745,4157.435897435899,4192.8205128205145,4211.282051282053,4184.615384615386,4206.153846153848,4156.923076923078,4185.128205128207,847.0,2045.0,2044.0,0.0,0.0,4.0,4.0,4.0,4.0,0.0,4.0,4.0,4.0,4.0,3.0,4.0,4.0,4.0,4.0,4.0,4.0
14.0,0.0,4187.692307692309,4222.051282051283,4174.3589743589755,4190.769230769232,4184.102564102565,4185.641025641027,4161.0256410256425,4170.769230769232,4204.615384615386,4211.794871794873,4196.923076923078,4214.3589743589755,4163.589743589745,4187.179487179489,859.0,2046.0,2042.0,0.0,0.0,4.0,4.0,4.0,4.0,0.0,4.0,4.0,4.0,4.0,3.0,4.0,4.0,4.0,4.0,4.0,4.0
15.0,0.0,4186.153846153848,4211.794871794873,4167.692307692309,4201.0256410256425,4183.589743589745,4184.615384615386,4195.384615384617,4173.846153846155,4206.153846153848,4208.20512820513,4198.46153846154,4216.923076923078,4169.743589743592,4175.384615384617,826.0,2046.0,2040.0,0.0,0.0,4.0,4.0,4.0,4.0,0.0,4.0,4.0,4.0,4.0,3.0,4.0,4.0,4.0,4.0,4.0,4.0
16.0,0.0,4189.743589743592,4219.487179487181,4171.794871794873,4205.641025641027,4183.076923076925,4180.000000000002,4182.564102564104,4164.615384615386,4204.102564102565,4207.692307692309,4193.846153846155,4218.46153846154,4173.846153846155,4184.102564102565,0.0,2045.0,2033.0,0.0,0.0,4.0,4.0,4.0,4.0,0.0,4.0,4.0,4.0,4.0,3.0,4.0,4.0,4.0,4.0,4.0,4.0
17.0,0.0,4193.846153846155,4223.076923076925,4183.076923076925,4198.97435897436,4182.564102564104,4180.000000000002,4187.179487179489,4165.128205128207,4205.128205128207,4210.256410256412,4194.871794871797,4217.435897435899,4166.666666666668,4202.051282051283,0.0,2045.0,2029.0,0.0,0.0,4.0,4.0,4.0,4.0,0.0,4.0,4.0,4.0,4.0,3.0,4.0,4.0,4.0,4.0,4.0,4.0
18.0,0.0,4187.692307692309,4204.102564102565,4184.102564102565,4193.846153846155,4185.128205128207,4187.692307692309,4195.384615384617,4175.897435897437,4205.641025641027,4213.846153846155,4191.282051282053,4212.8205128205145,4153.846153846155,4183.076923076925,0.0,2047.0,2021.0,0.0,0.0,4.0,4.0,4.0,4.0,0.0,4.0,4.0,4.0,4.0,3.0,4.0,4.0,4.0,4.0,4.0,4.0
19.0,0.0,4186.153846153848,4194.3589743589755,4186.666666666668,4189.743589743592,4183.076923076925,4191.282051282053,4163.076923076925,4183.589743589745,4210.256410256412,4213.846153846155,4194.3589743589755,4221.538461538463,4158.97435897436,4158.97435897436,0.0,2047.0,2015.0,0.0,0.0,4.0,4.0,4.0,4.0,0.0,4.0,4.0,4.0,4.0,3.0,4.0,4.0,4.0,4.0,4.0,4.0
20.0,0.0,4189.743589743592,4191.282051282053,4188.71794871795,4182.051282051283,4182.051282051283,4187.692307692309,4127.179487179489,4177.94871794872,4210.769230769232,4209.743589743592,4200.512820512822,4227.179487179489,4167.692307692309,4179.487179487181,0.0,2046.0,2002.0,0.0,0.0,4.0,4.0,4.0,4.0,0.0,4.0,4.0,4.0,4.0,3.0,4.0,4.0,4.0,4.0,4.0,4.0
21.0,0.0,4194.3589743589755,4192.307692307694,4189.23076923077,4184.102564102565,4183.589743589745,4184.102564102565,4129.743589743592,4168.20512820513,4204.615384615386,4206.666666666668,4192.307692307694,4223.076923076925,4155.897435897437,4183.589743589745,0.0,2048.0,1996.0,0.0,0.0,4.0,4.0,4.0,4.0,0.0,4.0,4.0,4.0,4.0,3.0,4.0,4.0,4.0,4.0,4.0,4.0
22.0,0.0,4206.666666666668,4224.615384615386,4191.282051282053,4186.666666666668,4181.538461538463,4184.615384615386,4182.564102564104,4166.153846153848,4207.179487179489,4210.769230769232,4190.256410256412,4224.615384615386,4149.743589743592,4151.794871794873,0.0,2049.0,1993.0,0.0,0.0,4.0,4.0,4.0,4.0,0.0,4.0,4.0,4.0,4.0,3.0,4.0,4.0,4.0,4.0,4.0,4.0
23.0,0.0,4216.410256410258,4245.641025641027,4193.333333333335,4185.128205128207,4183.076923076925,4187.692307692309,4233.333333333335,4169.743589743592,4218.97435897436,4217.435897435899,4205.641025641027,4220.512820512822,4167.692307692309,4173.333333333335,0.0,2051.0,1985.0,0.0,0.0,4.0,4.0,4.0,4.0,0.0,4.0,4.0,4.0,4.0,3.0,4.0,4.0,4.0,4.0,4.0,4.0
24.0,0.0,4198.97435897436,4213.846153846155,4185.128205128207,4192.307692307694,4182.051282051283,4185.128205128207,4233.333333333335,4168.71794871795,4217.435897435899,4214.871794871797,4204.102564102565,4204.615384615386,4176.923076923078,4226.153846153848,0.0,2051.0,1983.0,0.0,0.0,4.0,4.0,4.0,4.0,0.0,4.0,4.0,4.0,4.0,3.0,4.0,4.0,4.0,4.0,4.0,4.0
25.0,0.0,4183.076923076925,4156.923076923078,4181.538461538463,4195.897435897437,4182.051282051283,4181.0256410256425,4220.512820512822,4163.076923076925,4208.20512820513,4208.20512820513,4190.256410256412,4207.179487179489,4167.692307692309,4215.384615384617,0.0,2051.0,1985.0,0.0,0.0,4.0,4.0,4.0,4.0,0.0,4.0,4.0,4.0,4.0,3.0,4.0,4.0,4.0,4.0,4.0,4.0
26.0,0.0,4195.897435897437,4065.641025641027,4189.743589743592,4195.897435897437,4186.666666666668,4181.0256410256425,4216.410256410258,4165.641025641027,4212.8205128205145,4210.256410256412,4196.923076923078,4229.23076923077,4171.794871794873,4185.128205128207,0.0,2052.0,1987.0,0.0,0.0,4.0,4.0,4.0,4.0,0.0,4.0,4.0,4.0,4.0,3.0,4.0,4.0,4.0,4.0,4.0,4.0
27.0,0.0,4195.384615384617,3955.8974358974374,4181.538461538463,4193.333333333335,4181.538461538463,4181.538461538463,4205.641025641027,4166.153846153848,4215.384615384617,4213.333333333335,4199.487179487181,4226.666666666668,4175.897435897437,4187.179487179489,0.0,2051.0,1993.0,0.0,0.0,4.0,4.0,4.0,4.0,0.0,4.0,4.0,4.0,4.0,3.0,4.0,4.0,4.0,4.0,4.0,4.0
28.0,0.0,4174.871794871797,3914.358974358976,4172.307692307694,4186.666666666668,4180.000000000002,4182.564102564104,4168.20512820513,4162.564102564104,4209.743589743592,4210.256410256412,4190.256410256412,4212.307692307694,4161.538461538463,4186.153846153848,0.0,2050.0,1997.0,0.0,0.0,4.0,4.0,4.0,4.0,0.0,4.0,4.0,4.0,4.0,3.0,4.0,4.0,4.0,4.0,4.0,4.0
29.0,0.0,4170.256410256412,3920.512820512822,4179.487179487181,4186.153846153848,4182.051282051283,4180.512820512822,4131.794871794873,4165.641025641027,4208.71794871795,4210.769230769232,4193.333333333335,4216.923076923078,4152.8205128205145,4173.333333333335,0.0,2049.0,2004.0,0.0,0.0,4.0,4.0,4.0,4.0,0.0,4.0,4.0,4.0,4.0,3.0,4.0,4.0,4.0,4.0,4.0,4.0
30.0,0.0,4182.051282051283,3905.641025641027,4186.666666666668,4187.692307692309,4183.589743589745,4176.410256410258,4142.051282051283,4169.743589743592,4213.333333333335,4214.3589743589755,4200.000000000002,4231.282051282053,4160.000000000002,4174.3589743589755,0.0,2048.0,2008.0,0.0,0.0,4.0,4.0,4.0,4.0,0.0,4.0,4.0,4.0,4.0,3.0,4.0,4.0,4.0,4.0,4.0,4.0
31.0,0.0,4180.000000000002,3895.8974358974374,4186.666666666668,4176.410256410258,4182.564102564104,4175.384615384617,4178.46153846154,4165.641025641027,4213.846153846155,4212.307692307694,4196.410256410258,4231.794871794873,4161.0256410256425,4175.384615384617,0.0,2048.0,2016.0,0.0,0.0,4.0,4.0,4.0,4.0,0.0,4.0,4.0,4.0,4.0,3.0,4.0,4.0,4.0,4.0,4.0,4.0
32.0,0.0,4166.153846153848,3913.846153846155,4182.564102564104,4169.743589743592,4177.94871794872,4177.94871794872,4186.666666666668,4160.512820512822,4209.23076923077,4209.743589743592,4189.743589743592,4218.97435897436,4151.282051282053,4164.615384615386,0.0,2047.0,2020.0,0.0,0.0,4.0,4.0,4.0,4.0,0.0,4.0,4.0,4.0,4.0,3.0,4.0,4.0,4.0,4.0,4.0,4.0
33.0,0.0,4165.128205128207,3913.846153846155,4176.410256410258,4171.282051282053,4182.564102564104,4174.871794871797,4177.94871794872,4160.000000000002,4205.641025641027,4209.743589743592,4186.666666666668,4211.794871794873,4142.051282051283,4155.897435897437,0.0,2046.0,2024.0,0.0,0.0,4.0,4.0,4.0,4.0,0.0,4.0,4.0,4.0,4.0,3.0,4.0,4.0,4.0,4.0,4.0,4.0
34.0,0.0,4144.102564102565,3888.2051282051298,4161.538461538463,4148.71794871795,4184.615384615386,4158.46153846154,4173.846153846155,4152.307692307694,4196.410256410258,4201.0256410256425,4173.333333333335,4199.487179487181,4129.23076923077,4140.512820512822,0.0,2043.0,2028.0,0.0,0.0,4.0,4.0,4.0,4.0,0.0,4.0,4.0,4.0,4.0,3.0,4.0,4.0,4.0,4.0,4.0,4.0
35.0,0.0,4096.923076923078,3895.384615384617,4155.897435897437,4138.97435897436,4181.538461538463,4150.769230769232,4175.384615384617,4149.23076923077,4190.769230769232,4198.46153846154,4165.128205128207,4194.3589743589755,4124.102564102565,4128.71794871795,0.0,2042.0,2030.0,0.0,0.0,4.0,4.0,4.0,4.0,0.0,4.0,4.0,4.0,4.0,3.0,4.0,4.0,4.0,4.0,4.0,4.0
36.0,0.0,4076.4102564102577,3930.7692307692323,4165.641025641027,4158.97435897436,4182.564102564104,4162.051282051283,4194.871794871797,4162.564102564104,4198.46153846154,4209.23076923077,4175.897435897437,4200.512820512822,4132.8205128205145,4141.538461538463,0.0,2040.0,2034.0,0.0,0.0,4.0,4.0,4.0,4.0,0.0,4.0,4.0,4.0,4.0,3.0,4.0,4.0,4.0,4.0,4.0,4.0
37.0,0.0,4083.589743589745,3928.71794871795,4168.71794871795,4169.23076923077,4177.94871794872,4160.512820512822,4166.666666666668,4173.333333333335,4202.564102564104,4211.794871794873,4185.128205128207,4202.051282051283,4139.487179487181,4154.871794871797,0.0,2040.0,2035.0,0.0,0.0,4.0,4.0,4.0,4.0,0.0,4.0,4.0,4.0,4.0,3.0,4.0,4.0,4.0,4.0,4.0,4.0
38.0,0.0,4082.564102564104,3906.1538461538476,4163.589743589745,4166.153846153848,4178.46153846154,4147.179487179489,4098.97435897436,4164.615384615386,4203.589743589745,4205.128205128207,4186.153846153848,4202.564102564104,4140.512820512822,4157.94871794872,0.0,2036.0,2038.0,0.0,0.0,4.0,4.0,4.0,4.0,0.0,4.0,4.0,4.0,4.0,3.0,4.0,4.0,4.0,4.0,4.0,4.0
39.0,0.0,4075.8974358974374,3928.71794871795,4157.435897435899,4157.435897435899,4180.512820512822,4146.666666666668,4133.333333333335,4155.897435897437,4205.641025641027,4204.615384615386,4183.076923076925,4201.538461538463,4141.538461538463,4161.538461538463,0.0,2036.0,2038.0,0.0,0.0,4.0,4.0,4.0,4.0,0.0,4.0,4.0,4.0,4.0,3.0,4.0,4.0,4.0,4.0,4.0,4.0
40.0,0.0,4084.102564102566,3964.615384615386,4157.435897435899,4152.307692307694,4180.000000000002,4152.8205128205145,4217.94871794872,4165.128205128207,4203.589743589745,4208.20512820513,4184.615384615386,4198.46153846154,4145.128205128207,4165.641025641027,0.0,2034.0,2042.0,0.0,0.0,4.0,4.0,4.0,4.0,0.0,4.0,4.0,4.0,4.0,3.0,4.0,4.0,4.0,4.0,4.0,4.0
41.0,0.0,4096.923076923078,3973.333333333335,4168.20512820513,4166.153846153848,4183.076923076925,4153.846153846155,4208.71794871795,4171.794871794873,4206.666666666668,4212.307692307694,4190.256410256412,4203.076923076925,4150.769230769232,4170.769230769232,0.0,2033.0,2041.0,0.0,0.0,4.0,4.0,4.0,4.0,0.0,4.0,4.0,4.0,4.0,3.0,4.0,4.0,4.0,4.0,4.0,4.0
42.0,0.0,4101.538461538463,3977.9487179487196,4172.8205128205145,4178.46153846154,4180.512820512822,4153.333333333335,4177.435897435899,4169.23076923077,4211.282051282053,4213.333333333335,4192.307692307694,4209.743589743592,4155.897435897437,4170.256410256412,0.0,2032.0,2043.0,0.0,0.0,4.0,4.0,4.0,4.0,0.0,4.0,4.0,4.0,4.0,3.0,4.0,4.0,4.0,4.0,4.0,4.0
43.0,0.0,4096.923076923078,3981.5384615384633,4169.23076923077,4170.769230769232,4180.000000000002,4154.3589743589755,4216.410256410258,4168.20512820513,4209.23076923077,4208.20512820513,4188.71794871795,4207.179487179489,4156.410256410258,4161.538461538463,0.0,2032.0,2043.0,0.0,0.0,4.0,4.0,4.0,4.0,0.0,4.0,4.0,4.0,4.0,3.0,4.0,4.0,4.0,4.0,4.0,4.0
44.0,0.0,4097.435897435899,3980.0000000000014,4171.282051282053,4171.794871794873,4182.051282051283,4154.871794871797,4226.153846153848,4167.179487179489,4207.692307692309,4207.179487179489,4184.615384615386,4208.20512820513,4155.897435897437,4165.128205128207,0.0,2031.0,2043.0,0.0,0.0,4.0,4.0,4.0,4.0,0.0,4.0,4.0,4.0,4.0,3.0,4.0,4.0,4.0,4.0,4.0,4.0
45.0,0.0,4110.256410256412,3987.692307692309,4178.46153846154,4185.641025641027,4180.512820512822,4154.871794871797,4200.512820512822,4168.71794871795,4210.769230769232,4211.282051282053,4187.692307692309,4213.846153846155,4158.97435897436,4182.051282051283,0.0,2030.0,2041.0,0.0,0.0,4.0,4.0,4.0,4.0,0.0,4.0,4.0,4.0,4.0,3.0,4.0,4.0,4.0,4.0,4.0,4.0
46.0,0.0,4115.384615384617,4002.564102564104,4181.538461538463,4187.692307692309,4181.0256410256425,4154.3589743589755,4209.743589743592,4167.179487179489,4211.282051282053,4210.769230769232,4190.256410256412,4214.871794871797,4158.97435897436,4187.179487179489,0.0,2030.0,2043.0,0.0,0.0,4.0,4.0,4.0,4.0,0.0,4.0,4.0,4.0,4.0,3.0,4.0,4.0,4.0,4.0,4.0,4.0
47.0,0.0,4109.23076923077,4007.1794871794887,4174.3589743589755,4181.538461538463,4179.487179487181,4150.256410256412,4219.487179487181,4157.94871794872,4208.20512820513,4204.615384615386,4187.179487179489,4211.794871794873,4158.46153846154,4180.512820512822,0.0,2030.0,2043.0,0.0,0.0,4.0,4.0,4.0,4.0,0.0,4.0,4.0,4.0,4.0,3.0,4.0,4.0,4.0,4.0,4.0,4.0
48.0,0.0,4106.666666666668,4002.564102564104,4169.743589743592,4177.435897435899,4180.512820512822,4149.743589743592,4223.076923076925,4155.897435897437,4205.641025641027,4205.641025641027,4184.102564102565,4205.641025641027,4154.871794871797,4177.94871794872,0.0,2029.0,2043.0,0.0,0.0,4.0,4.0,4.0,4.0,0.0,4.0,4.0,4.0,4.0,3.0,4.0,4.0,4.0,4.0,4.0,4.0
49.0,0.0,4110.256410256412,4006.6666666666683,4171.282051282053,4170.769230769232,4183.076923076925,4152.8205128205145,4216.410256410258,4165.641025641027,4203.589743589745,4209.743589743592,4183.589743589745,4201.538461538463,4143.589743589745,4176.410256410258,0.0,2030.0,2043.0,0.0,0.0,4.0,4.0,4.0,4.0,0.0,4.0,4.0,4.0,4.0,3.0,4.0,4.0,4.0,4.0,4.0,4.0
50.0,0.0,4113.846153846155,4022.564102564104,4171.794871794873,4166.153846153848,4182.051282051283,4159.487179487181,4177.94871794872,4174.871794871797,4211.282051282053,4212.307692307694,4188.71794871795,4205.128205128207,4142.564102564104,4171.282051282053,0.0,2029.0,2043.0,0.0,0.0,4.0,4.0,4.0,4.0,0.0,4.0,4.0,4.0,4.0,3.0,4.0,4.0,4.0,4.0,4.0,4.0
51.0,0.0,4115.384615384617,4036.4102564102577,4179.487179487181,4173.333333333335,4185.128205128207,4165.641025641027,4155.897435897437,4180.000000000002,4220.000000000002,4212.8205128205145,4196.923076923078,4209.23076923077,4152.8205128205145,4170.769230769232,0.0,2030.0,2043.0,0.0,0.0,4.0,4.0,4.0,4.0,0.0,4.0,4.0,4.0,4.0,3.0,4.0,4.0,4.0,4.0,4.0,4.0
52.0,0.0,4118.97435897436,4042.564102564104,4186.153846153848,4186.153846153848,4182.564102564104,4163.589743589745,4164.102564102565,4186.666666666668,4217.435897435899,4212.307692307694,4202.051282051283,4211.794871794873,4159.487179487181,4177.435897435899,0.0,2031.0,2044.0,0.0,0.0,4.0,4.0,4.0,4.0,0.0,4.0,4.0,4.0,4.0,3.0,4.0,4.0,4.0,4.0,4.0,4.0
53.0,0.0,4123.589743589745,4053.333333333335,4182.051282051283,4184.615384615386,4181.0256410256425,4160.000000000002,4162.564102564104,4185.128205128207,4215.897435897437,4216.923076923078,4197.435897435899,4214.3589743589755,4162.564102564104,4186.153846153848,0.0,2031.0,2043.0,0.0,0.0,4.0,4.0,4.0,4.0,0.0,4.0,4.0,4.0,4.0,3.0,4.0,4.0,4.0,4.0,4.0,4.0
54.0,0.0,4120.000000000002,4066.6666666666683,4177.94871794872,4174.3589743589755,4182.564102564104,4161.538461538463,4155.897435897437,4173.333333333335,4216.410256410258,4216.410256410258,4192.307692307694,4208.20512820513,4166.666666666668,4185.128205128207,0.0,2030.0,2046.0,0.0,0.0,4.0,4.0,4.0,4.0,0.0,4.0,4.0,4.0,4.0,3.0,4.0,4.0,4.0,4.0,4.0,4.0
55.0,0.0,4114.3589743589755,4082.0512820512836,4173.333333333335,4177.94871794872,4179.487179487181,4161.0256410256425,4168.20512820513,4171.794871794873,4215.384615384617,4212.307692307694,4196.923076923078,4199.487179487181,4166.666666666668,4177.94871794872,0.0,2030.0,2047.0,0.0,0.0,4.0,4.0,4.0,4.0,0.0,4.0,4.0,4.0,4.0,3.0,4.0,4.0,4.0,4.0,4.0,4.0
56.0,0.0,4118.97435897436,4103.076923076925,4168.20512820513,4188.71794871795,4181.0256410256425,4161.538461538463,4180.000000000002,4176.410256410258,4218.46153846154,4215.384615384617,4203.076923076925,4203.589743589745,4169.23076923077,4183.589743589745,0.0,2034.0,2049.0,0.0,0.0,4.0,4.0,4.0,4.0,0.0,4.0,4.0,4.0,4.0,3.0,4.0,4.0,4.0,4.0,4.0,4.0
57.0,0.0,4119.487179487181,4115.897435897437,4166.666666666668,4186.666666666668,4180.000000000002,4159.487179487181,4162.564102564104,4172.8205128205145,4221.0256410256425,4216.923076923078,4201.538461538463,4209.743589743592,4174.871794871797,4186.153846153848,0.0,2035.0,2049.0,0.0,0.0,4.0,4.0,4.0,4.0,0.0,4.0,4.0,4.0,4.0,3.0,4.0,4.0,4.0,4.0,4.0,4.0
58.0,0.0,4118.97435897436,4159.487179487181,4167.179487179489,4178.46153846154,4178.46153846154,4156.410256410258,4150.769230769232,4172.307692307694,4218.97435897436,4215.897435897437,4200.000000000002,4206.666666666668,4171.282051282053,4173.846153846155,0.0,2036.0,2049.0,0.0,0.0,4.0,4.0,4.0,4.0,0.0,4.0,4.0,4.0,4.0,3.0,4.0,4.0,4.0,4.0,4.0,4.0
59.0,0.0,4127.179487179489,4240.000000000002,4165.128205128207,4177.94871794872,4182.051282051283,4161.538461538463,4203.589743589745,4180.000000000002,4218.97435897436,4215.897435897437,4203.076923076925,4206.153846153848,4168.71794871795,4171.794871794873,0.0,2035.0,2048.0,0.0,0.0,4.0,4.0,4.0,4.0,0.0,4.0,4.0,4.0,4.0,3.0,4.0,4.0,4.0,4.0,4.0,4.0
60.0,0.0,4129.743589743592,4287.692307692309,4160.512820512822,4184.102564102565,4180.512820512822,4169.743589743592,4238.97435897436,4182.051282051283,4223.076923076925,4215.897435897437,4204.615384615386,4211.794871794873,4173.846153846155,4179.487179487181,0.0,2040.0,2051.0,0.0,0.0,4.0,4.0,4.0,4.0,0.0,4.0,4.0,4.0,4.0,3.0,4.0,4.0,4.0,4.0,4.0,4.0
61.0,0.0,4125.128205128207,4280.000000000002,4162.051282051283,4189.743589743592,4181.0256410256425,4168.20512820513,4192.307692307694,4174.3589743589755,4224.615384615386,4216.923076923078,4201.538461538463,4210.256410256412,4170.769230769232,4177.94871794872,0.0,2039.0,2052.0,0.0,0.0,4.0,4.0,4.0,4.0,0.0,4.0,4.0,4.0,4.0,3.0,4.0,4.0,4.0,4.0,4.0,4.0
62.0,0.0,4118.46153846154,4267.692307692309,4154.871794871797,4183.589743589745,4182.051282051283,4155.897435897437,4168.71794871795,4161.538461538463,4213.333333333335,4215.384615384617,4189.743589743592,4191.282051282053,4153.846153846155,4166.153846153848,0.0,2041.0,2055.0,0.0,0.0,4.0,4.0,4.0,4.0,0.0,4.0,4.0,4.0,4.0,3.0,4.0,4.0,4.0,4.0,4.0,4.0
63.0,0.0,4112.8205128205145,4279.487179487181,4143.076923076925,4168.20512820513,4182.051282051283,4149.743589743592,4157.94871794872,4149.743589743592,4200.512820512822,4208.20512820513,4180.000000000002,4180.512820512822,4144.615384615386,4163.589743589745,0.0,2040.0,2056.0,0.0,0.0,4.0,4.0,4.0,4.0,0.0,4.0,4.0,4.0,4.0,3.0,4.0,4.0,4.0,4.0,4.0,4.0
64.0,0.0,4120.512820512822,4301.538461538463,4154.3589743589755,4167.692307692309,4183.076923076925,4156.923076923078,4115.384615384617,4155.384615384617,4208.71794871795,4208.71794871795,4185.128205128207,4192.307692307694,4152.8205128205145,4177.435897435899,810.0,2038.0,2057.0,0.0,0.0,4.0,4.0,4.0,4.0,0.0,4.0,4.0,4.0,4.0,3.0,4.0,4.0,4.0,4.0,4.0,4.0
65.0,0.0,4128.20512820513,4314.3589743589755,4164.615384615386,4177.94871794872,4180.512820512822,4159.487179487181,4128.71794871795,4163.589743589745,4214.871794871797,4212.8205128205145,4190.769230769232,4199.487179487181,4158.46153846154,4180.000000000002,853.0,2039.0,2057.0,0.0,0.0,4.0,4.0,4.0,4.0,0.0,4.0,4.0,4.0,4.0,3.0,4.0,4.0,4.0,4.0,4.0,4.0
66.0,0.0,4126.666666666668,4308.20512820513,4162.051282051283,4182.564102564104,4183.589743589745,4159.487179487181,4161.538461538463,4161.538461538463,4208.71794871795,4209.23076923077,4189.23076923077,4200.512820512822,4154.871794871797,4170.769230769232,842.0,2039.0,2058.0,0.0,0.0,4.0,4.0,4.0,4.0,0.0,4.0,4.0,4.0,4.0,3.0,4.0,4.0,4.0,4.0,4.0,4.0
67.0,0.0,4128.20512820513,4286.666666666668,4166.666666666668,4175.897435897437,4183.589743589745,4158.97435897436,4145.641025641027,4155.897435897437,4205.128205128207,4206.153846153848,4186.153846153848,4204.102564102565,4149.23076923077,4170.256410256412,836.0,2039.0,2059.0,0.0,0.0,4.0,4.0,4.0,4.0,0.0,4.0,4.0,4.0,4.0,3.0,4.0,4.0,4.0,4.0,4.0,4.0
68.0,0.0,4130.256410256412,4276.410256410258,4168.71794871795,4165.641025641027,4180.512820512822,4155.384615384617,4161.0256410256425,4151.794871794873,4204.102564102565,4204.615384615386,4181.0256410256425,4202.051282051283,4148.20512820513,4167.692307692309,0.0,2040.0,2061.0,0.0,0.0,4.0,4.0,4.0,4.0,0.0,4.0,4.0,4.0,4.0,3.0,4.0,4.0,4.0,4.0,4.0,4.0
69.0,0.0,4134.3589743589755,4292.8205128205145,4168.20512820513,4175.384615384617,4184.102564102565,4158.46153846154,4203.076923076925,4158.97435897436,4207.179487179489,4206.153846153848,4186.153846153848,4205.128205128207,4157.435897435899,4168.20512820513,638.0,2040.0,2062.0,0.0,0.0,4.0,4.0,4.0,4.0,0.0,4.0,4.0,4.0,4.0,3.0,4.0,4.0,4.0,4.0,4.0,4.0
70.0,0.0,4148.71794871795,4318.46153846154,4178.46153846154,4193.846153846155,4182.051282051283,4165.128205128207,4202.051282051283,4170.769230769232,4217.94871794872,4212.8205128205145,4196.923076923078,4220.000000000002,4170.256410256412,4185.641025641027,802.0,2042.0,2061.0,0.0,0.0,4.0,4.0,4.0,4.0,0.0,4.0,4.0,4.0,4.0,3.0,4.0,4.0,4.0,4.0,4.0,4.0
