COUNTER,INTERPOLATED,AF3,F7,F3,FC5,T7,P7,O1,O2,P8,T8,FC6,F4,F8,AF4,RAW_CQ,GYROX,GYROY,MARKER,SYNC,CQ_AF3,CQ_F7,CQ_F3,CQ_FC5,CQ_T7,CQ_P7,CQ_O1,CQ_O2,CQ_P8,CQ_T8,CQ_FC6,CQ_F4,CQ_F8,CQ_AF4,CQ_CMS,CQ_DRL
109.0,0.0,4213.846153846155,4196.923076923078,4218.97435897436,4321.538461538463,4188.71794871795,4242.564102564104,4091.7948717948734,4183.076923076925,4198.97435897436,4190.256410256412,4225.128205128207,4233.846153846155,4184.102564102565,4202.564102564104,851.0,2040.0,2041.0,0.0,0.0,0.0,0.0,0.0,0.0,0.0,0.0,0.0,0.0,0.0,0.0,0.0,0.0,0.0,0.0,0.0,0.0
110.0,0.0,4175.384615384617,4158.46153846154,4187.179487179489,4275.897435897437,4186.666666666668,4238.97435897436,4074.8717948717963,4170.256410256412,4178.97435897436,4184.102564102565,4200.000000000002,4211.282051282053,4155.897435897437,4163.076923076925,864.0,2039.0,2039.0,0.0,0.0,0.0,0.0,0.0,0.0,0.0,0.0,0.0,0.0,0.0,0.0,0.0,0.0,0.0,0.0,0.0,0.0
111.0,0.0,4162.564102564104,4115.384615384617,4178.46153846154,4249.23076923077,4191.282051282053,4237.435897435899,4060.0000000000014,4160.512820512822,4161.0256410256425,4180.512820512822,4183.589743589745,4197.435897435899,4134.3589743589755,4142.564102564104,821.0,2040.0,2038.0,0.0,0.0,0.0,0.0,0.0,0.0,0.0,0.0,0.0,0.0,0.0,0.0,0.0,0.0,0.0,0.0,0.0,0.0
112.0,0.0,4197.94871794872,4174.3589743589755,4202.051282051283,4270.256410256412,4189.23076923077,4228.20512820513,4040.0000000000014,4168.20512820513,4172.8205128205145,4181.538461538463,4196.410256410258,4213.333333333335,4160.512820512822,4173.846153846155,852.0,2041.0,2038.0,0.0,0.0,0.0,0.0,0.0,0.0,0.0,0.0,0.0,0.0,0.0,0.0,0.0,0.0,0.0,0.0,0.0,0.0
113.0,0.0,4189.23076923077,4168.20512820513,4191.794871794873,4264.102564102565,4187.179487179489,4222.051282051283,4011.7948717948734,4154.871794871797,4165.128205128207,4176.923076923078,4188.20512820513,4206.153846153848,4157.435897435899,4172.307692307694,851.0,2041.0,2038.0,0.0,0.0,0.0,0.0,0.0,0.0,0.0,0.0,0.0,0.0,0.0,0.0,0.0,0.0,0.0,0.0,0.0,0.0
114.0,0.0,4163.076923076925,4107.179487179489,4176.923076923078,4217.94871794872,4186.153846153848,4222.051282051283,4012.3076923076937,4142.564102564104,4146.153846153848,4171.794871794873,4166.666666666668,4194.871794871797,4130.256410256412,4151.794871794873,864.0,2042.0,2039.0,0.0,0.0,0.0,0.0,0.0,0.0,0.0,0.0,0.0,0.0,0.0,0.0,0.0,0.0,0.0,0.0,0.0,0.0
115.0,0.0,4182.564102564104,4148.71794871795,4195.897435897437,4216.410256410258,4190.256410256412,4224.102564102565,4014.358974358976,4161.538461538463,4157.94871794872,4173.846153846155,4179.487179487181,4206.666666666668,4141.0256410256425,4164.102564102565,821.0,2042.0,2039.0,0.0,0.0,0.0,0.0,0.0,0.0,0.0,0.0,0.0,0.0,0.0,0.0,0.0,0.0,0.0,0.0,0.0,0.0
116.0,0.0,4188.71794871795,4179.487179487181,4196.923076923078,4232.307692307694,4190.256410256412,4222.051282051283,4005.641025641027,4174.3589743589755,4171.282051282053,4177.435897435899,4195.384615384617,4204.102564102565,4155.897435897437,4169.743589743592,852.0,2040.0,2038.0,0.0,0.0,0.0,0.0,0.0,0.0,0.0,0.0,0.0,0.0,0.0,0.0,0.0,0.0,0.0,0.0,0.0,0.0
117.0,0.0,4166.153846153848,4119.487179487181,4177.94871794872,4223.076923076925,4186.666666666668,4214.3589743589755,4032.8205128205145,4171.282051282053,4164.615384615386,4177.94871794872,4189.743589743592,4191.794871794873,4153.846153846155,4164.102564102565,851.0,2039.0,2037.0,0.0,0.0,0.0,0.0,0.0,0.0,0.0,0.0,0.0,0.0,0.0,0.0,0.0,0.0,0.0,0.0,0.0,0.0
118.0,0.0,4153.846153846155,4094.8717948717963,4171.282051282053,4192.8205128205145,4190.256410256412,4211.282051282053,4058.9743589743603,4158.97435897436,4145.641025641027,4172.8205128205145,4167.692307692309,4183.076923076925,4137.94871794872,4158.46153846154,864.0,2040.0,2036.0,0.0,0.0,0.0,0.0,0.0,0.0,0.0,0.0,0.0,0.0,0.0,0.0,0.0,0.0,0.0,0.0,0.0,0.0
119.0,0.0,4150.769230769232,4115.897435897437,4169.23076923077,4151.794871794873,4186.666666666668,4216.410256410258,4054.8717948717963,4148.20512820513,4134.3589743589755,4164.102564102565,4149.743589743592,4180.000000000002,4120.512820512822,4141.0256410256425,821.0,2041.0,2036.0,0.0,0.0,0.0,0.0,0.0,0.0,0.0,0.0,0.0,0.0,0.0,0.0,0.0,0.0,0.0,0.0,0.0,0.0
120.0,0.0,4158.97435897436,4114.3589743589755,4181.0256410256425,4146.153846153848,4186.153846153848,4225.128205128207,4086.1538461538476,4160.000000000002,4149.743589743592,4166.153846153848,4165.128205128207,4194.871794871797,4135.897435897437,4143.589743589745,852.0,2041.0,2037.0,0.0,0.0,0.0,0.0,0.0,0.0,0.0,0.0,0.0,0.0,0.0,0.0,0.0,0.0,0.0,0.0,0.0,0.0
121.0,0.0,4171.794871794873,4131.282051282053,4199.487179487181,4183.589743589745,4190.769230769232,4226.153846153848,4122.051282051283,4175.897435897437,4168.71794871795,4180.512820512822,4186.666666666668,4209.743589743592,4163.076923076925,4179.487179487181,851.0,2041.0,2038.0,0.0,0.0,0.0,0.0,0.0,0.0,0.0,0.0,0.0,0.0,0.0,0.0,0.0,0.0,0.0,0.0,0.0,0.0
122.0,0.0,4168.71794871795,4146.666666666668,4193.846153846155,4199.487179487181,4184.102564102565,4214.871794871797,4088.2051282051298,4174.3589743589755,4167.692307692309,4184.102564102565,4182.564102564104,4205.641025641027,4157.435897435899,4197.94871794872,864.0,2040.0,2041.0,0.0,0.0,0.0,0.0,0.0,0.0,0.0,0.0,0.0,0.0,0.0,0.0,0.0,0.0,0.0,0.0,0.0,0.0
123.0,0.0,4154.3589743589755,4124.615384615386,4179.487179487181,4168.71794871795,4184.615384615386,4211.282051282053,4047.1794871794887,4166.666666666668,4159.487179487181,4176.410256410258,4172.8205128205145,4193.846153846155,4144.615384615386,4184.102564102565,821.0,2039.0,2041.0,0.0,0.0,0.0,0.0,0.0,0.0,0.0,0.0,0.0,0.0,0.0,0.0,0.0,0.0,0.0,0.0,0.0,0.0
124.0,0.0,4149.23076923077,4121.538461538463,4177.435897435899,4156.923076923078,4185.128205128207,4218.46153846154,4053.333333333335,4167.692307692309,4158.97435897436,4177.435897435899,4176.923076923078,4190.256410256412,4156.923076923078,4177.435897435899,852.0,2038.0,2040.0,0.0,0.0,0.0,0.0,0.0,0.0,0.0,0.0,0.0,0.0,0.0,0.0,0.0,0.0,0.0,0.0,0.0,0.0
125.0,0.0,4151.282051282053,4114.3589743589755,4183.589743589745,4168.20512820513,4186.666666666668,4221.538461538463,4070.7692307692323,4170.769230769232,4161.0256410256425,4182.051282051283,4178.97435897436,4193.333333333335,4158.97435897436,4183.076923076925,851.0,2038.0,2040.0,0.0,0.0,0.0,0.0,0.0,0.0,0.0,0.0,0.0,0.0,0.0,0.0,0.0,0.0,0.0,0.0,0.0,0.0
126.0,0.0,4154.3589743589755,4098.97435897436,4183.589743589745,4163.076923076925,4190.769230769232,4218.46153846154,4073.333333333335,4168.71794871795,4153.846153846155,4177.435897435899,4168.71794871795,4195.384615384617,4136.410256410258,4174.871794871797,864.0,2039.0,2040.0,0.0,0.0,0.0,0.0,0.0,0.0,0.0,0.0,0.0,0.0,0.0,0.0,0.0,0.0,0.0,0.0,0.0,0.0
127.0,0.0,4160.000000000002,4126.666666666668,4181.0256410256425,4170.256410256412,4185.641025641027,4213.333333333335,4066.6666666666683,4171.282051282053,4153.333333333335,4176.923076923078,4166.153846153848,4196.923076923078,4138.46153846154,4172.8205128205145,821.0,2039.0,2040.0,0.0,0.0,0.0,0.0,0.0,0.0,0.0,0.0,0.0,0.0,0.0,0.0,0.0,0.0,0.0,0.0,0.0,0.0
128.0,0.0,4172.8205128205145,4134.871794871797,4192.307692307694,4190.769230769232,4185.128205128207,4214.871794871797,4058.46153846154,4185.641025641027,4171.794871794873,4188.71794871795,4177.94871794872,4206.153846153848,4161.0256410256425,4192.307692307694,852.0,2039.0,2041.0,0.0,0.0,0.0,0.0,4.0,0.0,0.0,0.0,0.0,0.0,0.0,0.0,0.0,0.0,0.0,0.0,4.0,4.0
0.0,0.0,4165.128205128207,4080.512820512822,4191.282051282053,4181.0256410256425,4186.153846153848,4210.769230769232,4040.512820512822,4187.179487179489,4170.769230769232,4185.128205128207,4173.333333333335,4197.94871794872,4146.666666666668,4187.692307692309,820.0,2040.0,2041.0,0.0,0.0,0.0,0.0,4.0,0.0,0.0,0.0,0.0,0.0,0.0,0.0,0.0,0.0,0.0,0.0,4.0,4.0
1.0,0.0,4136.410256410258,4064.102564102566,4164.615384615386,4158.46153846154,4187.179487179489,4196.410256410258,4042.0512820512836,4161.538461538463,4138.97435897436,4167.692307692309,4147.692307692309,4165.641025641027,4111.282051282053,4157.435897435899,844.0,2039.0,2042.0,0.0,0.0,0.0,0.0,4.0,4.0,0.0,0.0,0.0,0.0,0.0,0.0,0.0,0.0,0.0,0.0,4.0,4.0
2.0,0.0,4141.538461538463,4102.564102564104,4164.102564102565,4171.282051282053,4190.769230769232,4198.46153846154,4085.1282051282064,4155.384615384617,4135.897435897437,4169.23076923077,4144.102564102565,4169.743589743592,4118.46153846154,4158.46153846154,842.0,2042.0,2040.0,0.0,0.0,4.0,0.0,4.0,4.0,0.0,0.0,0.0,0.0,0.0,0.0,0.0,0.0,0.0,0.0,4.0,4.0
3.0,0.0,4167.692307692309,4117.94871794872,4186.666666666668,4188.20512820513,4187.692307692309,4213.333333333335,4101.0256410256425,4175.897435897437,4158.46153846154,4180.000000000002,4163.589743589745,4195.384615384617,4137.94871794872,4178.46153846154,836.0,2042.0,2039.0,0.0,0.0,4.0,4.0,4.0,4.0,0.0,0.0,0.0,0.0,0.0,0.0,0.0,0.0,0.0,0.0,4.0,4.0
4.0,0.0,4169.743589743592,4116.923076923078,4192.8205128205145,4185.128205128207,4185.641025641027,4221.0256410256425,4084.615384615386,4187.692307692309,4163.076923076925,4181.0256410256425,4171.794871794873,4196.923076923078,4136.410256410258,4182.051282051283,0.0,2043.0,2040.0,0.0,0.0,4.0,4.0,4.0,4.0,0.0,0.0,0.0,0.0,0.0,0.0,0.0,0.0,0.0,0.0,4.0,4.0
5.0,0.0,4163.589743589745,4103.076923076925,4188.20512820513,4189.23076923077,4185.641025641027,4216.410256410258,4091.7948717948734,4190.256410256412,4162.564102564104,4181.0256410256425,4168.71794871795,4201.0256410256425,4140.512820512822,4174.871794871797,605.0,2043.0,2041.0,0.0,0.0,4.0,4.0,4.0,4.0,0.0,4.0,0.0,0.0,0.0,0.0,0.0,0.0,0.0,0.0,4.0,4.0
6.0,0.0,4169.23076923077,4075.8974358974374,4191.282051282053,4199.487179487181,4188.20512820513,4214.871794871797,4086.6666666666683,4188.20512820513,4165.128205128207,4182.564102564104,4166.666666666668,4211.282051282053,4146.153846153848,4181.538461538463,799.0,2044.0,2042.0,0.0,0.0,4.0,4.0,4.0,4.0,0.0,4.0,4.0,0.0,0.0,0.0,0.0,0.0,0.0,0.0,4.0,4.0
7.0,0.0,4179.487179487181,4096.410256410258,4200.512820512822,4204.102564102565,4190.256410256412,4214.3589743589755,4062.564102564104,4186.666666666668,4166.153846153848,4180.000000000002,4171.794871794873,4209.743589743592,4146.666666666668,4203.076923076925,856.0,2046.0,2042.0,0.0,0.0,4.0,4.0,4.0,4.0,0.0,4.0,4.0,4.0,0.0,0.0,0.0,0.0,0.0,0.0,4.0,4.0
8.0,0.0,4178.97435897436,4127.179487179489,4197.94871794872,4195.384615384617,4183.076923076925,4210.256410256412,4080.512820512822,4197.435897435899,4175.384615384617,4182.051282051283,4179.487179487181,4211.794871794873,4154.871794871797,4205.641025641027,845.0,2045.0,2042.0,0.0,0.0,4.0,4.0,4.0,4.0,0.0,4.0,4.0,4.0,4.0,0.0,0.0,0.0,0.0,0.0,4.0,4.0
9.0,0.0,4174.871794871797,4115.384615384617,4196.410256410258,4180.512820512822,4183.589743589745,4217.94871794872,4099.487179487181,4200.512820512822,4183.076923076925,4187.179487179489,4177.94871794872,4214.3589743589755,4154.3589743589755,4191.282051282053,301.0,2044.0,2041.0,0.0,0.0,4.0,4.0,4.0,4.0,0.0,4.0,4.0,4.0,4.0,4.0,0.0,0.0,0.0,0.0,4.0,4.0
10.0,0.0,4178.46153846154,4103.076923076925,4203.076923076925,4180.000000000002,4186.666666666668,4221.0256410256425,4074.358974358976,4189.23076923077,4177.94871794872,4182.051282051283,4174.871794871797,4209.23076923077,4151.794871794873,4193.846153846155,864.0,2046.0,2041.0,0.0,0.0,4.0,4.0,4.0,4.0,0.0,4.0,4.0,4.0,4.0,4.0,0.0,0.0,4.0,0.0,4.0,4.0
11.0,0.0,4181.538461538463,4110.256410256412,4203.589743589745,4187.692307692309,4187.692307692309,4213.846153846155,4076.4102564102577,4194.871794871797,4183.076923076925,4181.538461538463,4185.641025641027,4212.307692307694,4167.692307692309,4203.076923076925,820.0,2045.0,2039.0,0.0,0.0,4.0,4.0,4.0,4.0,0.0,4.0,4.0,4.0,4.0,4.0,0.0,0.0,4.0,4.0,4.0,4.0
12.0,0.0,4177.94871794872,4111.794871794873,4198.97435897436,4186.666666666668,4190.256410256412,4208.71794871795,4108.71794871795,4209.23076923077,4197.435897435899,4189.743589743592,4195.897435897437,4217.94871794872,4167.179487179489,4198.46153846154,852.0,2045.0,2040.0,0.0,0.0,4.0,4.0,4.0,4.0,0.0,4.0,4.0,4.0,4.0,4.0,4.0,0.0,4.0,4.0,4.0,4.0
13.0,0.0,4171.794871794873,4093.333333333335,4190.256410256412,4182.051282051283,4185.641025641027,4203.589743589745,4092.3076923076937,4198.46153846154,4186.666666666668,4184.102564102565,4181.0256410256425,4203.589743589745,4142.051282051283,4187.179487179489,849.0,2043.0,2040.0,0.0,0.0,4.0,4.0,4.0,4.0,0.0,4.0,4.0,4.0,4.0,4.0,4.0,4.0,4.0,4.0,4.0,4.0
14.0,0.0,4167.179487179489,4060.0000000000014,4186.666666666668,4185.128205128207,4187.692307692309,4205.128205128207,4053.333333333335,4180.512820512822,4169.23076923077,4170.256410256412,4163.076923076925,4186.666666666668,4131.794871794873,4178.46153846154,864.0,2043.0,2042.0,0.0,0.0,4.0,4.0,4.0,4.0,0.0,4.0,4.0,4.0,4.0,4.0,4.0,4.0,4.0,4.0,4.0,4.0
15.0,0.0,4170.769230769232,4081.0256410256425,4194.871794871797,4172.8205128205145,4189.743589743592,4208.71794871795,4078.46153846154,4184.615384615386,4173.333333333335,4173.333333333335,4165.128205128207,4194.3589743589755,4138.97435897436,4177.435897435899,820.0,2041.0,2044.0,0.0,0.0,4.0,4.0,4.0,4.0,0.0,4.0,4.0,4.0,4.0,4.0,4.0,4.0,4.0,4.0,4.0,4.0
16.0,0.0,4178.46153846154,4129.743589743592,4205.128205128207,4162.564102564104,4184.615384615386,4205.128205128207,4129.23076923077,4198.97435897436,4188.20512820513,4182.564102564104,4174.3589743589755,4208.71794871795,4146.666666666668,4187.179487179489,0.0,2041.0,2045.0,0.0,0.0,4.0,4.0,4.0,4.0,0.0,4.0,4.0,4.0,4.0,4.0,4.0,4.0,4.0,4.0,4.0,4.0
17.0,0.0,4166.666666666668,4071.7948717948734,4200.000000000002,4181.0256410256425,4186.666666666668,4202.564102564104,4099.487179487181,4193.333333333335,4187.692307692309,4177.94871794872,4172.8205128205145,4203.076923076925,4141.0256410256425,4181.538461538463,0.0,2039.0,2043.0,0.0,0.0,4.0,4.0,4.0,4.0,0.0,4.0,4.0,4.0,4.0,4.0,4.0,4.0,4.0,4.0,4.0,4.0
18.0,0.0,4153.846153846155,4029.230769230771,4183.076923076925,4176.923076923078,4185.641025641027,4205.128205128207,4063.0769230769247,4177.94871794872,4176.410256410258,4169.23076923077,4165.641025641027,4188.71794871795,4130.769230769232,4170.256410256412,0.0,2039.0,2044.0,0.0,0.0,4.0,4.0,4.0,4.0,0.0,4.0,4.0,4.0,4.0,4.0,4.0,4.0,4.0,4.0,4.0,4.0
19.0,0.0,4163.589743589745,4111.794871794873,4183.589743589745,4150.769230769232,4187.692307692309,4204.102564102565,4108.20512820513,4181.538461538463,4180.512820512822,4171.282051282053,4169.743589743592,4190.769230769232,4141.0256410256425,4182.564102564104,0.0,2040.0,2047.0,0.0,0.0,4.0,4.0,4.0,4.0,0.0,4.0,4.0,4.0,4.0,4.0,4.0,4.0,4.0,4.0,4.0,4.0
20.0,0.0,4170.769230769232,4132.8205128205145,4190.769230769232,4151.282051282053,4190.256410256412,4195.897435897437,4126.153846153848,4187.179487179489,4184.615384615386,4178.97435897436,4171.794871794873,4197.94871794872,4151.794871794873,4188.71794871795,0.0,2041.0,2046.0,0.0,0.0,4.0,4.0,4.0,4.0,0.0,4.0,4.0,4.0,4.0,4.0,4.0,4.0,4.0,4.0,4.0,4.0
21.0,0.0,4172.8205128205145,4074.358974358976,4193.333333333335,4174.871794871797,4184.102564102565,4193.846153846155,4076.4102564102577,4185.128205128207,4185.641025641027,4180.000000000002,4171.794871794873,4201.538461538463,4149.23076923077,4185.641025641027,0.0,2042.0,2047.0,0.0,0.0,4.0,4.0,4.0,4.0,0.0,4.0,4.0,4.0,4.0,4.0,4.0,4.0,4.0,4.0,4.0,4.0
22.0,0.0,4176.410256410258,4074.8717948717963,4193.333333333335,4173.846153846155,4186.153846153848,4201.538461538463,4048.2051282051298,4178.97435897436,4187.692307692309,4174.871794871797,4173.846153846155,4199.487179487181,4150.769230769232,4191.282051282053,0.0,2044.0,2046.0,0.0,0.0,4.0,4.0,4.0,4.0,0.0,4.0,4.0,4.0,4.0,4.0,4.0,4.0,4.0,4.0,4.0,4.0
23.0,0.0,4172.8205128205145,4101.538461538463,4191.794871794873,4154.3589743589755,4187.179487179489,4205.128205128207,4063.589743589745,4176.923076923078,4186.153846153848,4174.871794871797,4173.333333333335,4193.846153846155,4155.384615384617,4188.71794871795,0.0,2043.0,2047.0,0.0,0.0,4.0,4.0,4.0,4.0,0.0,4.0,4.0,4.0,4.0,4.0,4.0,4.0,4.0,4.0,4.0,4.0
24.0,0.0,4175.384615384617,4101.538461538463,4194.3589743589755,4160.512820512822,4188.20512820513,4201.0256410256425,4076.9230769230785,4184.615384615386,4187.692307692309,4180.512820512822,4176.410256410258,4201.0256410256425,4149.23076923077,4176.923076923078,0.0,2042.0,2047.0,0.0,0.0,4.0,4.0,4.0,4.0,0.0,4.0,4.0,4.0,4.0,4.0,4.0,4.0,4.0,4.0,4.0,4.0
25.0,0.0,4183.589743589745,4103.076923076925,4195.384615384617,4174.3589743589755,4189.23076923077,4192.8205128205145,4074.358974358976,4187.179487179489,4191.282051282053,4177.94871794872,4178.46153846154,4206.153846153848,4144.102564102565,4175.384615384617,0.0,2044.0,2044.0,0.0,0.0,4.0,4.0,4.0,4.0,0.0,4.0,4.0,4.0,4.0,4.0,4.0,4.0,4.0,4.0,4.0,4.0
26.0,0.0,4172.307692307694,4090.256410256412,4182.051282051283,4164.615384615386,4186.153846153848,4188.71794871795,4063.0769230769247,4180.512820512822,4184.615384615386,4169.23076923077,4168.71794871795,4187.179487179489,4142.051282051283,4181.0256410256425,0.0,2042.0,2046.0,0.0,0.0,4.0,4.0,4.0,4.0,0.0,4.0,4.0,4.0,4.0,4.0,4.0,4.0,4.0,4.0,4.0,4.0
27.0,0.0,4158.46153846154,4074.358974358976,4169.23076923077,4144.102564102565,4189.743589743592,4192.307692307694,4067.1794871794887,4173.333333333335,4172.307692307694,4169.743589743592,4155.897435897437,4172.307692307694,4129.23076923077,4177.435897435899,0.0,2043.0,2045.0,0.0,0.0,4.0,4.0,4.0,4.0,0.0,4.0,4.0,4.0,4.0,4.0,4.0,4.0,4.0,4.0,4.0,4.0
28.0,0.0,4158.46153846154,4079.487179487181,4168.71794871795,4148.20512820513,4186.666666666668,4192.8205128205145,4084.615384615386,4169.23076923077,4171.282051282053,4173.846153846155,4157.435897435899,4176.410256410258,4126.153846153848,4168.71794871795,0.0,2044.0,2045.0,0.0,0.0,4.0,4.0,4.0,4.0,0.0,4.0,4.0,4.0,4.0,4.0,4.0,4.0,4.0,4.0,4.0,4.0
29.0,0.0,4159.487179487181,4093.846153846155,4173.333333333335,4158.46153846154,4184.102564102565,4188.20512820513,4069.743589743591,4167.692307692309,4172.8205128205145,4174.3589743589755,4156.410256410258,4177.94871794872,4135.897435897437,4162.564102564104,0.0,2044.0,2044.0,0.0,0.0,4.0,4.0,4.0,4.0,0.0,4.0,4.0,4.0,4.0,4.0,4.0,4.0,4.0,4.0,4.0,4.0
30.0,0.0,4158.97435897436,4098.97435897436,4175.384615384617,4151.282051282053,4186.666666666668,4182.051282051283,4050.256410256412,4162.564102564104,4169.23076923077,4170.769230769232,4149.23076923077,4173.846153846155,4131.282051282053,4157.435897435899,0.0,2045.0,2045.0,0.0,0.0,4.0,4.0,4.0,4.0,0.0,4.0,4.0,4.0,4.0,4.0,4.0,4.0,4.0,4.0,4.0,4.0
31.0,0.0,4160.000000000002,4078.9743589743603,4172.8205128205145,4151.282051282053,4184.615384615386,4176.923076923078,4063.0769230769247,4158.97435897436,4171.282051282053,4169.743589743592,4149.743589743592,4177.94871794872,4124.615384615386,4155.897435897437,0.0,2044.0,2044.0,0.0,0.0,4.0,4.0,4.0,4.0,0.0,4.0,4.0,4.0,4.0,4.0,4.0,4.0,4.0,4.0,4.0,4.0
32.0,0.0,4169.743589743592,4069.230769230771,4173.846153846155,4154.871794871797,4187.692307692309,4184.615384615386,4089.230769230771,4167.692307692309,4183.589743589745,4177.94871794872,4160.000000000002,4185.128205128207,4140.000000000002,4171.794871794873,0.0,2045.0,2044.0,0.0,0.0,4.0,4.0,4.0,4.0,0.0,4.0,4.0,4.0,4.0,4.0,4.0,4.0,4.0,4.0,4.0,4.0
33.0,0.0,4180.000000000002,4101.0256410256425,4175.384615384617,4155.384615384617,4188.20512820513,4189.743589743592,4087.692307692309,4183.076923076925,4193.846153846155,4183.076923076925,4171.794871794873,4192.307692307694,4157.94871794872,4186.153846153848,0.0,2046.0,2044.0,0.0,0.0,4.0,4.0,4.0,4.0,0.0,4.0,4.0,4.0,4.0,4.0,4.0,4.0,4.0,4.0,4.0,4.0
34.0,0.0,4176.923076923078,4118.46153846154,4177.435897435899,4160.000000000002,4187.179487179489,4188.71794871795,4064.102564102566,4195.384615384617,4198.97435897436,4184.615384615386,4181.538461538463,4198.97435897436,4155.384615384617,4182.051282051283,0.0,2046.0,2043.0,0.0,0.0,4.0,4.0,4.0,4.0,0.0,4.0,4.0,4.0,4.0,4.0,4.0,4.0,4.0,4.0,4.0,4.0
35.0,0.0,4182.051282051283,4098.97435897436,4191.282051282053,4172.8205128205145,4188.20512820513,4195.384615384617,4085.641025641027,4207.692307692309,4213.333333333335,4189.23076923077,4193.333333333335,4208.71794871795,4153.333333333335,4183.076923076925,0.0,2047.0,2043.0,0.0,0.0,4.0,4.0,4.0,4.0,0.0,4.0,4.0,4.0,4.0,4.0,4.0,4.0,4.0,4.0,4.0,4.0
36.0,0.0,4182.564102564104,4093.333333333335,4184.615384615386,4168.20512820513,4183.076923076925,4192.8205128205145,4136.923076923078,4202.051282051283,4210.769230769232,4187.692307692309,4186.153846153848,4205.128205128207,4151.794871794873,4183.076923076925,0.0,2047.0,2043.0,0.0,0.0,4.0,4.0,4.0,4.0,0.0,4.0,4.0,4.0,4.0,4.0,4.0,4.0,4.0,4.0,4.0,4.0
37.0,0.0,4164.615384615386,4102.051282051283,4160.000000000002,4146.153846153848,4184.615384615386,4180.000000000002,4138.97435897436,4181.538461538463,4188.71794871795,4183.076923076925,4164.102564102565,4183.589743589745,4141.538461538463,4173.333333333335,0.0,2046.0,2044.0,0.0,0.0,4.0,4.0,4.0,4.0,0.0,4.0,4.0,4.0,4.0,4.0,4.0,4.0,4.0,4.0,4.0,4.0
38.0,0.0,4160.512820512822,4103.589743589745,4161.538461538463,4147.692307692309,4185.641025641027,4177.435897435899,4109.743589743592,4181.0256410256425,4188.20512820513,4183.589743589745,4159.487179487181,4178.97435897436,4135.897435897437,4168.20512820513,0.0,2048.0,2043.0,0.0,0.0,4.0,4.0,4.0,4.0,0.0,4.0,4.0,4.0,4.0,4.0,4.0,4.0,4.0,4.0,4.0,4.0
39.0,0.0,4172.307692307694,4097.94871794872,4173.846153846155,4157.94871794872,4184.102564102565,4183.589743589745,4111.282051282053,4187.179487179489,4195.897435897437,4184.102564102565,4167.692307692309,4195.384615384617,4137.94871794872,4168.20512820513,0.0,2047.0,2041.0,0.0,0.0,4.0,4.0,4.0,4.0,0.0,4.0,4.0,4.0,4.0,4.0,4.0,4.0,4.0,4.0,4.0,4.0
40.0,0.0,4181.538461538463,4090.7692307692323,4176.923076923078,4155.384615384617,4186.153846153848,4188.71794871795,4109.743589743592,4181.538461538463,4190.769230769232,4182.051282051283,4170.769230769232,4207.692307692309,4147.179487179489,4179.487179487181,0.0,2047.0,2041.0,0.0,0.0,4.0,4.0,4.0,4.0,0.0,4.0,4.0,4.0,4.0,4.0,4.0,4.0,4.0,4.0,4.0,4.0
41.0,0.0,4182.564102564104,4107.179487179489,4176.410256410258,4153.846153846155,4184.615384615386,4186.666666666668,4072.8205128205145,4184.615384615386,4193.333333333335,4186.666666666668,4175.384615384617,4209.23076923077,4157.94871794872,4181.538461538463,0.0,2047.0,2039.0,0.0,0.0,4.0,4.0,4.0,4.0,0.0,4.0,4.0,4.0,4.0,4.0,4.0,4.0,4.0,4.0,4.0,4.0
42.0,0.0,4171.282051282053,4119.487179487181,4168.71794871795,4152.8205128205145,4187.692307692309,4184.102564102565,4057.435897435899,4183.589743589745,4196.410256410258,4187.692307692309,4176.410256410258,4197.435897435899,4146.666666666668,4165.641025641027,0.0,2047.0,2038.0,0.0,0.0,4.0,4.0,4.0,4.0,0.0,4.0,4.0,4.0,4.0,4.0,4.0,4.0,4.0,4.0,4.0,4.0
43.0,0.0,4163.076923076925,4080.0000000000014,4157.94871794872,4155.384615384617,4186.666666666668,4186.666666666668,4075.8974358974374,4171.794871794873,4186.666666666668,4183.589743589745,4169.743589743592,4180.000000000002,4127.692307692309,4160.512820512822,0.0,2047.0,2038.0,0.0,0.0,4.0,4.0,4.0,4.0,0.0,4.0,4.0,4.0,4.0,4.0,4.0,4.0,4.0,4.0,4.0,4.0
44.0,0.0,4176.923076923078,4067.1794871794887,4172.307692307694,4163.589743589745,4185.128205128207,4188.71794871795,4087.692307692309,4189.743589743592,4200.000000000002,4189.23076923077,4180.512820512822,4190.256410256412,4140.512820512822,4175.384615384617,0.0,2047.0,2036.0,0.0,0.0,4.0,4.0,4.0,4.0,0.0,4.0,4.0,4.0,4.0,4.0,4.0,4.0,4.0,4.0,4.0,4.0
45.0,0.0,4193.333333333335,4123.076923076925,4200.512820512822,4171.794871794873,4189.743589743592,4184.102564102565,4101.538461538463,4216.410256410258,4222.051282051283,4198.46153846154,4198.46153846154,4217.435897435899,4165.641025641027,4186.666666666668,0.0,2046.0,2037.0,0.0,0.0,4.0,4.0,4.0,4.0,0.0,4.0,4.0,4.0,4.0,4.0,4.0,4.0,4.0,4.0,4.0,4.0
46.0,0.0,4162.564102564104,4114.871794871797,4170.256410256412,4146.666666666668,4185.641025641027,4177.435897435899,4096.923076923078,4178.97435897436,4187.179487179489,4184.615384615386,4167.179487179489,4191.794871794873,4135.897435897437,4161.0256410256425,0.0,2046.0,2037.0,0.0,0.0,4.0,4.0,4.0,4.0,0.0,4.0,4.0,4.0,4.0,4.0,4.0,4.0,4.0,4.0,4.0,4.0
47.0,0.0,4141.0256410256425,4072.8205128205145,4142.564102564104,4121.0256410256425,4186.153846153848,4185.128205128207,4073.333333333335,4143.589743589745,4158.46153846154,4170.256410256412,4138.97435897436,4160.000000000002,4105.128205128207,4140.000000000002,0.0,2046.0,2039.0,0.0,0.0,4.0,4.0,4.0,4.0,0.0,4.0,4.0,4.0,4.0,4.0,4.0,4.0,4.0,4.0,4.0,4.0
48.0,0.0,4175.384615384617,4095.8974358974374,4180.000000000002,4156.923076923078,4186.666666666668,4193.333333333335,4089.230769230771,4185.128205128207,4198.46153846154,4188.20512820513,4174.871794871797,4193.846153846155,4140.000000000002,4169.23076923077,0.0,2046.0,2039.0,0.0,0.0,4.0,4.0,4.0,4.0,0.0,4.0,4.0,4.0,4.0,4.0,4.0,4.0,4.0,4.0,4.0,4.0
49.0,0.0,4195.384615384617,4104.102564102565,4201.538461538463,4187.692307692309,4182.051282051283,4187.179487179489,4117.94871794872,4212.307692307694,4222.564102564104,4202.051282051283,4197.94871794872,4223.589743589745,4160.000000000002,4192.307692307694,0.0,2047.0,2041.0,0.0,0.0,4.0,4.0,4.0,4.0,0.0,4.0,4.0,4.0,4.0,4.0,4.0,4.0,4.0,4.0,4.0,4.0
50.0,0.0,4182.564102564104,4096.410256410258,4182.051282051283,4162.051282051283,4185.641025641027,4182.564102564104,4100.512820512822,4187.179487179489,4201.538461538463,4189.743589743592,4179.487179487181,4206.666666666668,4137.435897435899,4174.871794871797,0.0,2048.0,2042.0,0.0,0.0,4.0,4.0,4.0,4.0,0.0,4.0,4.0,4.0,4.0,4.0,4.0,4.0,4.0,4.0,4.0,4.0
51.0,0.0,4177.94871794872,4120.000000000002,4175.384615384617,4153.333333333335,4186.153846153848,4183.589743589745,4086.1538461538476,4183.076923076925,4197.94871794872,4182.564102564104,4176.923076923078,4196.923076923078,4145.128205128207,4166.153846153848,0.0,2049.0,2043.0,0.0,0.0,4.0,4.0,4.0,4.0,0.0,4.0,4.0,4.0,4.0,4.0,4.0,4.0,4.0,4.0,4.0,4.0
52.0,0.0,4182.564102564104,4126.666666666668,4181.538461538463,4172.307692307694,4186.666666666668,4181.0256410256425,4121.0256410256425,4195.897435897437,4205.641025641027,4189.23076923077,4186.153846153848,4201.538461538463,4161.0256410256425,4176.410256410258,0.0,2049.0,2047.0,0.0,0.0,4.0,4.0,4.0,4.0,0.0,4.0,4.0,4.0,4.0,4.0,4.0,4.0,4.0,4.0,4.0,4.0
53.0,0.0,4169.23076923077,4099.487179487181,4169.23076923077,4156.410256410258,4184.615384615386,4172.8205128205145,4113.846153846155,4178.97435897436,4185.641025641027,4185.128205128207,4168.71794871795,4186.666666666668,4130.769230769232,4165.641025641027,0.0,2051.0,2047.0,0.0,0.0,4.0,4.0,4.0,4.0,0.0,4.0,4.0,4.0,4.0,4.0,4.0,4.0,4.0,4.0,4.0,4.0
54.0,0.0,4162.564102564104,4096.923076923078,4166.153846153848,4151.282051282053,4180.512820512822,4180.000000000002,4103.589743589745,4171.794871794873,4179.487179487181,4178.46153846154,4160.512820512822,4183.076923076925,4115.897435897437,4155.897435897437,0.0,2051.0,2046.0,0.0,0.0,4.0,4.0,4.0,4.0,0.0,4.0,4.0,4.0,4.0,4.0,4.0,4.0,4.0,4.0,4.0,4.0
55.0,0.0,4179.487179487181,4122.051282051283,4181.0256410256425,4175.384615384617,4185.641025641027,4196.923076923078,4203.589743589745,4191.282051282053,4199.487179487181,4186.666666666668,4180.512820512822,4204.615384615386,4144.102564102565,4169.23076923077,0.0,2051.0,2048.0,0.0,0.0,4.0,4.0,4.0,4.0,0.0,4.0,4.0,4.0,4.0,4.0,4.0,4.0,4.0,4.0,4.0,4.0
56.0,0.0,4190.256410256412,4122.564102564104,4184.102564102565,4164.102564102565,4184.102564102565,4194.871794871797,4265.128205128207,4202.564102564104,4207.179487179489,4193.846153846155,4195.384615384617,4214.871794871797,4161.0256410256425,4179.487179487181,0.0,2051.0,2047.0,0.0,0.0,4.0,4.0,4.0,4.0,0.0,4.0,4.0,4.0,4.0,4.0,4.0,4.0,4.0,4.0,4.0,4.0
57.0,0.0,4185.128205128207,4101.0256410256425,4178.97435897436,4148.20512820513,4184.102564102565,4187.179487179489,4174.871794871797,4196.410256410258,4198.46153846154,4189.743589743592,4188.71794871795,4204.102564102565,4151.794871794873,4175.384615384617,0.0,2049.0,2049.0,0.0,0.0,4.0,4.0,4.0,4.0,0.0,4.0,4.0,4.0,4.0,4.0,4.0,4.0,4.0,4.0,4.0,4.0
58.0,0.0,4171.794871794873,4096.410256410258,4166.666666666668,4157.435897435899,4189.743589743592,4185.128205128207,4090.256410256412,4181.0256410256425,4185.641025641027,4184.615384615386,4171.794871794873,4186.666666666668,4137.94871794872,4164.615384615386,0.0,2051.0,2048.0,0.0,0.0,4.0,4.0,4.0,4.0,0.0,4.0,4.0,4.0,4.0,4.0,4.0,4.0,4.0,4.0,4.0,4.0
59.0,0.0,4170.256410256412,4112.8205128205145,4166.666666666668,4170.769230769232,4186.666666666668,4181.0256410256425,4114.871794871797,4184.615384615386,4188.71794871795,4183.589743589745,4172.8205128205145,4191.794871794873,4139.487179487181,4166.666666666668,0.0,2049.0,2048.0,0.0,0.0,4.0,4.0,4.0,4.0,0.0,4.0,4.0,4.0,4.0,4.0,4.0,4.0,4.0,4.0,4.0,4.0
60.0,0.0,4178.46153846154,4109.23076923077,4180.000000000002,4174.871794871797,4183.076923076925,4180.000000000002,4143.076923076925,4202.564102564104,4201.538461538463,4189.23076923077,4189.23076923077,4211.282051282053,4143.589743589745,4177.435897435899,0.0,2048.0,2049.0,0.0,0.0,4.0,4.0,4.0,4.0,0.0,4.0,4.0,4.0,4.0,4.0,4.0,4.0,4.0,4.0,4.0,4.0
61.0,0.0,4178.46153846154,4095.8974358974374,4175.897435897437,4158.46153846154,4183.589743589745,4180.000000000002,4128.20512820513,4204.615384615386,4198.97435897436,4196.410256410258,4191.794871794873,4210.769230769232,4144.102564102565,4171.794871794873,0.0,2047.0,2047.0,0.0,0.0,4.0,4.0,4.0,4.0,0.0,4.0,4.0,4.0,4.0,4.0,4.0,4.0,4.0,4.0,4.0,4.0
62.0,0.0,4181.538461538463,4109.23076923077,4169.23076923077,4144.102564102565,4187.179487179489,4180.000000000002,4133.846153846155,4194.871794871797,4196.923076923078,4192.8205128205145,4186.666666666668,4203.076923076925,4152.307692307694,4171.794871794873,0.0,2046.0,2047.0,0.0,0.0,4.0,4.0,4.0,4.0,0.0,4.0,4.0,4.0,4.0,4.0,4.0,4.0,4.0,4.0,4.0,4.0
63.0,0.0,4185.128205128207,4117.94871794872,4176.410256410258,4157.435897435899,4184.615384615386,4179.487179487181,4152.8205128205145,4193.846153846155,4206.666666666668,4188.20512820513,4191.282051282053,4205.128205128207,4155.384615384617,4180.000000000002,0.0,2045.0,2046.0,0.0,0.0,4.0,4.0,4.0,4.0,0.0,4.0,4.0,4.0,4.0,4.0,4.0,4.0,4.0,4.0,4.0,4.0
64.0,0.0,4163.076923076925,4086.6666666666683,4162.564102564104,4162.051282051283,4178.46153846154,4174.871794871797,4155.384615384617,4182.051282051283,4190.256410256412,4185.641025641027,4182.051282051283,4188.71794871795,4132.307692307694,4156.410256410258,819.0,2046.0,2046.0,0.0,0.0,4.0,4.0,4.0,4.0,0.0,4.0,4.0,4.0,4.0,4.0,4.0,4.0,4.0,4.0,4.0,4.0
65.0,0.0,4149.743589743592,4071.2820512820526,4150.769230769232,4146.153846153848,4187.179487179489,4176.923076923078,4149.743589743592,4168.20512820513,4167.179487179489,4182.564102564104,4166.153846153848,4176.410256410258,4108.71794871795,4138.97435897436,846.0,2045.0,2045.0,0.0,0.0,4.0,4.0,4.0,4.0,0.0,4.0,4.0,4.0,4.0,4.0,4.0,4.0,4.0,4.0,4.0,4.0
66.0,0.0,4177.94871794872,4116.923076923078,4172.8205128205145,4160.512820512822,4187.179487179489,4184.615384615386,4157.94871794872,4185.641025641027,4188.20512820513,4185.641025641027,4180.000000000002,4197.435897435899,4127.692307692309,4168.20512820513,842.0,2043.0,2044.0,0.0,0.0,4.0,4.0,4.0,4.0,0.0,4.0,4.0,4.0,4.0,4.0,4.0,4.0,4.0,4.0,4.0,4.0
67.0,0.0,4192.307692307694,4124.615384615386,4186.153846153848,4172.307692307694,4182.564102564104,4184.102564102565,4175.897435897437,4197.435897435899,4207.179487179489,4190.769230769232,4194.871794871797,4209.743589743592,4150.256410256412,4185.128205128207,839.0,2043.0,2044.0,0.0,0.0,4.0,4.0,4.0,4.0,0.0,4.0,4.0,4.0,4.0,4.0,4.0,4.0,4.0,4.0,4.0,4.0
68.0,0.0,4180.512820512822,4075.384615384617,4181.0256410256425,4135.897435897437,4188.20512820513,4180.000000000002,4183.076923076925,4188.71794871795,4199.487179487181,4192.8205128205145,4192.307692307694,4207.692307692309,4144.615384615386,4176.410256410258,0.0,2042.0,2044.0,0.0,0.0,4.0,4.0,4.0,4.0,0.0,4.0,4.0,4.0,4.0,4.0,4.0,4.0,4.0,4.0,4.0,4.0
69.0,0.0,4184.615384615386,4087.692307692309,4184.615384615386,4126.153846153848,4186.153846153848,4178.46153846154,4184.615384615386,4193.846153846155,4201.538461538463,4193.846153846155,4192.307692307694,4212.307692307694,4145.641025641027,4182.564102564104,603.0,2042.0,2045.0,0.0,0.0,4.0,4.0,4.0,4.0,0.0,4.0,4.0,4.0,4.0,4.0,4.0,4.0,4.0,4.0,4.0,4.0
70.0,0.0,4200.000000000002,4142.051282051283,4193.846153846155,4168.71794871795,4186.153846153848,4178.97435897436,4183.076923076925,4205.641025641027,4212.307692307694,4197.94871794872,4196.410256410258,4218.97435897436,4152.8205128205145,4193.846153846155,799.0,2041.0,2044.0,0.0,0.0,4.0,4.0,4.0,4.0,0.0,4.0,4.0,4.0,4.0,4.0,4.0,4.0,4.0,4.0,4.0,4.0
71.0,0.0,4197.435897435899,4127.179487179489,4193.333333333335,4190.256410256412,4186.153846153848,4177.435897435899,4170.256410256412,4202.051282051283,4210.769230769232,4200.000000000002,4192.8205128205145,4223.589743589745,4143.076923076925,4188.20512820513,785.0,2040.0,2044.0,0.0,0.0,4.0,4.0,4.0,4.0,0.0,4.0,4.0,4.0,4.0,4.0,4.0,4.0,4.0,4.0,4.0,4.0
72.0,0.0,4185.128205128207,4082.564102564104,4189.23076923077,4168.71794871795,4185.128205128207,4173.846153846155,4156.923076923078,4199.487179487181,4206.153846153848,4197.435897435899,4189.23076923077,4222.564102564104,4140.512820512822,4184.102564102565,776.0,2041.0,2043.0,0.0,0.0,4.0,4.0,4.0,4.0,0.0,4.0,4.0,4.0,4.0,4.0,4.0,4.0,4.0,4.0,4.0,4.0
73.0,0.0,4183.589743589745,4096.410256410258,4188.20512820513,4144.102564102565,4187.179487179489,4172.307692307694,4152.307692307694,4206.666666666668,4209.743589743592,4192.8205128205145,4191.794871794873,4211.282051282053,4151.794871794873,4182.051282051283,301.0,2042.0,2043.0,0.0,0.0,4.0,4.0,4.0,4.0,0.0,4.0,4.0,4.0,4.0,4.0,4.0,4.0,4.0,4.0,4.0,4.0
74.0,0.0,4178.46153846154,4111.794871794873,4177.435897435899,4127.692307692309,4184.102564102565,4169.23076923077,4142.564102564104,4197.435897435899,4201.538461538463,4187.692307692309,4182.051282051283,4200.512820512822,4143.589743589745,4162.051282051283,864.0,2042.0,2042.0,0.0,0.0,4.0,4.0,4.0,4.0,0.0,4.0,4.0,4.0,4.0,4.0,4.0,4.0,4.0,4.0,4.0,4.0
75.0,0.0,4169.23076923077,4073.846153846155,4168.71794871795,4128.71794871795,4185.128205128207,4170.256410256412,4132.307692307694,4179.487179487181,4181.538461538463,4183.589743589745,4165.641025641027,4196.410256410258,4120.000000000002,4147.692307692309,784.0,2041.0,2044.0,0.0,0.0,4.0,4.0,4.0,4.0,0.0,4.0,4.0,4.0,4.0,4.0,4.0,4.0,4.0,4.0,4.0,4.0
76.0,0.0,4180.512820512822,4084.102564102566,4177.94871794872,4157.435897435899,4183.589743589745,4169.743589743592,4143.076923076925,4191.794871794873,4192.8205128205145,4189.743589743592,4177.435897435899,4207.692307692309,4126.153846153848,4170.256410256412,1295.0,2041.0,2042.0,0.0,0.0,4.0,4.0,4.0,4.0,0.0,4.0,4.0,4.0,4.0,4.0,4.0,4.0,4.0,4.0,4.0,4.0
77.0,0.0,4192.307692307694,4127.692307692309,4188.71794871795,4170.769230769232,4181.0256410256425,4167.692307692309,4149.743589743592,4214.3589743589755,4216.923076923078,4197.94871794872,4198.46153846154,4220.512820512822,4149.743589743592,4187.692307692309,849.0,2042.0,2043.0,0.0,0.0,4.0,4.0,4.0,4.0,0.0,4.0,4.0,4.0,4.0,4.0,4.0,4.0,4.0,4.0,4.0,4.0
78.0,0.0,4179.487179487181,4100.000000000002,4186.666666666668,4152.8205128205145,4185.128205128207,4167.179487179489,4179.487179487181,4205.641025641027,4210.256410256412,4193.333333333335,4193.333333333335,4209.23076923077,4149.743589743592,4167.692307692309,864.0,2043.0,2042.0,0.0,0.0,4.0,4.0,4.0,4.0,0.0,4.0,4.0,4.0,4.0,4.0,4.0,4.0,4.0,4.0,4.0,4.0
79.0,0.0,4181.538461538463,4085.641025641027,4185.641025641027,4153.333333333335,4183.076923076925,4162.051282051283,4273.846153846155,4194.3589743589755,4203.076923076925,4190.256410256412,4194.871794871797,4200.000000000002,4144.102564102565,4163.076923076925,784.0,2043.0,2045.0,0.0,0.0,4.0,4.0,4.0,4.0,0.0,4.0,4.0,4.0,4.0,4.0,4.0,4.0,4.0,4.0,4.0,4.0
80.0,0.0,4205.128205128207,4132.8205128205145,4191.794871794873,4173.333333333335,4183.076923076925,4158.46153846154,4337.435897435899,4199.487179487181,4214.871794871797,4195.897435897437,4212.8205128205145,4210.769230769232,4160.000000000002,4191.282051282053,1295.0,2045.0,2044.0,0.0,0.0,4.0,4.0,4.0,4.0,0.0,4.0,4.0,4.0,4.0,4.0,4.0,4.0,4.0,4.0,4.0,4.0
81.0,0.0,4194.3589743589755,4113.333333333335,4183.589743589745,4169.23076923077,4186.153846153848,4161.538461538463,4316.410256410258,4192.307692307694,4207.179487179489,4196.410256410258,4205.641025641027,4204.102564102565,4161.538461538463,4188.20512820513,849.0,2043.0,2044.0,0.0,0.0,4.0,4.0,4.0,4.0,0.0,4.0,4.0,4.0,4.0,4.0,4.0,4.0,4.0,4.0,4.0,4.0
82.0,0.0,4171.794871794873,4074.8717948717963,4173.333333333335,4146.666666666668,4186.666666666668,4163.076923076925,4306.153846153848,4185.128205128207,4193.333333333335,4191.794871794873,4190.256410256412,4192.307692307694,4140.000000000002,4155.384615384617,864.0,2042.0,2046.0,0.0,0.0,4.0,4.0,4.0,4.0,0.0,4.0,4.0,4.0,4.0,4.0,4.0,4.0,4.0,4.0,4.0,4.0
83.0,0.0,4178.46153846154,4103.076923076925,4176.923076923078,4140.000000000002,4188.71794871795,4162.564102564104,4328.71794871795,4192.307692307694,4197.435897435899,4190.769230769232,4192.307692307694,4202.051282051283,4132.8205128205145,4155.897435897437,784.0,2044.0,2048.0,0.0,0.0,4.0,4.0,4.0,4.0,0.0,4.0,4.0,4.0,4.0,4.0,4.0,4.0,4.0,4.0,4.0,4.0
84.0,0.0,4169.743589743592,4089.743589743591,4166.666666666668,4135.384615384617,4181.538461538463,4160.512820512822,4304.615384615386,4186.666666666668,4185.128205128207,4181.538461538463,4180.000000000002,4192.307692307694,4123.076923076925,4161.0256410256425,1295.0,2044.0,2048.0,0.0,0.0,4.0,4.0,4.0,4.0,0.0,4.0,4.0,4.0,4.0,4.0,4.0,4.0,4.0,4.0,4.0,4.0
85.0,0.0,4169.743589743592,4072.8205128205145,4169.23076923077,4147.179487179489,4182.051282051283,4162.564102564104,4287.692307692309,4191.282051282053,4185.128205128207,4181.0256410256425,4176.410256410258,4192.307692307694,4116.410256410258,4150.256410256412,849.0,2043.0,2049.0,0.0,0.0,4.0,4.0,4.0,4.0,0.0,4.0,4.0,4.0,4.0,4.0,4.0,4.0,4.0,4.0,4.0,4.0
86.0,0.0,4199.487179487181,4106.153846153848,4193.846153846155,4170.769230769232,4186.666666666668,4166.153846153848,4333.846153846155,4212.8205128205145,4213.846153846155,4196.410256410258,4196.410256410258,4219.487179487181,4138.46153846154,4151.794871794873,864.0,2047.0,2050.0,0.0,0.0,4.0,4.0,4.0,4.0,0.0,4.0,4.0,4.0,4.0,4.0,4.0,4.0,4.0,4.0,4.0,4.0
87.0,0.0,4190.769230769232,4093.333333333335,4185.641025641027,4157.94871794872,4182.051282051283,4166.153846153848,4357.435897435899,4203.589743589745,4206.153846153848,4194.871794871797,4188.20512820513,4212.307692307694,4151.794871794873,4158.46153846154,784.0,2046.0,2049.0,0.0,0.0,4.0,4.0,4.0,4.0,0.0,4.0,4.0,4.0,4.0,4.0,4.0,4.0,4.0,4.0,4.0,4.0
88.0,0.0,4177.435897435899,4088.2051282051298,4182.564102564104,4152.8205128205145,4183.076923076925,4169.743589743592,4336.410256410258,4193.846153846155,4193.846153846155,4190.256410256412,4182.051282051283,4212.8205128205145,4152.8205128205145,4173.333333333335,1295.0,2048.0,2051.0,0.0,0.0,4.0,4.0,4.0,4.0,0.0,4.0,4.0,4.0,4.0,4.0,4.0,4.0,4.0,4.0,4.0,4.0
89.0,0.0,4206.153846153848,4134.3589743589755,4204.615384615386,4162.564102564104,4184.102564102565,4164.615384615386,4322.564102564104,4209.23076923077,4208.20512820513,4195.897435897437,4197.435897435899,4237.94871794872,4161.0256410256425,4182.051282051283,849.0,2048.0,2051.0,0.0,0.0,4.0,4.0,4.0,4.0,0.0,4.0,4.0,4.0,4.0,4.0,4.0,4.0,4.0,4.0,4.0,4.0
90.0,0.0,4213.333333333335,4111.282051282053,4203.076923076925,4157.435897435899,4184.615384615386,4161.538461538463,4326.666666666668,4210.256410256412,4209.23076923077,4195.897435897437,4196.923076923078,4230.256410256412,4159.487179487181,4169.743589743592,864.0,2051.0,2049.0,0.0,0.0,4.0,4.0,4.0,4.0,0.0,4.0,4.0,4.0,4.0,4.0,4.0,4.0,4.0,4.0,4.0,4.0
91.0,0.0,4193.333333333335,4057.9487179487196,4194.871794871797,4163.589743589745,4186.666666666668,4169.23076923077,4322.051282051283,4201.0256410256425,4201.0256410256425,4191.794871794873,4191.282051282053,4213.846153846155,4153.333333333335,4172.8205128205145,784.0,2052.0,2048.0,0.0,0.0,4.0,4.0,4.0,4.0,0.0,4.0,4.0,4.0,4.0,4.0,4.0,4.0,4.0,4.0,4.0,4.0
92.0,0.0,4192.307692307694,4089.743589743591,4197.94871794872,4175.897435897437,4184.102564102565,4167.692307692309,4315.384615384617,4199.487179487181,4199.487179487181,4192.307692307694,4193.333333333335,4223.076923076925,4152.307692307694,4173.846153846155,1295.0,2056.0,2047.0,0.0,0.0,4.0,4.0,4.0,4.0,0.0,4.0,4.0,4.0,4.0,4.0,4.0,4.0,4.0,4.0,4.0,4.0
93.0,0.0,4209.743589743592,4143.589743589745,4200.512820512822,4171.794871794873,4185.641025641027,4165.641025641027,4329.743589743592,4204.102564102565,4204.102564102565,4194.871794871797,4196.923076923078,4236.923076923078,4155.384615384617,4161.0256410256425,849.0,2058.0,2046.0,0.0,0.0,4.0,4.0,4.0,4.0,0.0,4.0,4.0,4.0,4.0,4.0,4.0,4.0,4.0,4.0,4.0,4.0
94.0,0.0,4210.769230769232,4138.46153846154,4199.487179487181,4165.641025641027,4185.641025641027,4169.743589743592,4343.589743589745,4213.333333333335,4217.435897435899,4197.94871794872,4206.666666666668,4244.102564102565,4169.23076923077,4164.615384615386,864.0,2059.0,2045.0,0.0,0.0,4.0,4.0,4.0,4.0,0.0,4.0,4.0,4.0,4.0,4.0,4.0,4.0,4.0,4.0,4.0,4.0
95.0,0.0,4197.435897435899,4088.71794871795,4200.512820512822,4170.769230769232,4187.692307692309,4169.743589743592,4340.512820512822,4210.769230769232,4218.97435897436,4199.487179487181,4209.23076923077,4237.94871794872,4171.794871794873,4172.8205128205145,784.0,2060.0,2044.0,0.0,0.0,4.0,4.0,4.0,4.0,0.0,4.0,4.0,4.0,4.0,4.0,4.0,4.0,4.0,4.0,4.0,4.0
96.0,0.0,4193.333333333335,4083.0769230769247,4196.923076923078,4162.051282051283,4187.179487179489,4161.0256410256425,4339.487179487181,4194.871794871797,4198.46153846154,4192.8205128205145,4190.769230769232,4222.051282051283,4153.333333333335,4157.435897435899,1295.0,2060.0,2045.0,0.0,0.0,4.0,4.0,4.0,4.0,0.0,4.0,4.0,4.0,4.0,4.0,4.0,4.0,4.0,4.0,4.0,4.0
97.0,0.0,4206.153846153848,4146.666666666668,4195.897435897437,4161.538461538463,4182.564102564104,4162.051282051283,4356.923076923078,4205.641025641027,4204.102564102565,4194.3589743589755,4192.307692307694,4230.769230769232,4157.94871794872,4151.794871794873,849.0,2060.0,2045.0,0.0,0.0,4.0,4.0,4.0,4.0,0.0,4.0,4.0,4.0,4.0,4.0,4.0,4.0,4.0,4.0,4.0,4.0
98.0,0.0,4222.564102564104,4177.435897435899,4209.743589743592,4181.538461538463,4186.666666666668,4169.743589743592,4360.512820512822,4226.153846153848,4231.794871794873,4205.128205128207,4217.94871794872,4248.20512820513,4183.076923076925,4172.8205128205145,864.0,2059.0,2046.0,0.0,0.0,4.0,4.0,4.0,4.0,0.0,4.0,4.0,4.0,4.0,4.0,4.0,4.0,4.0,4.0,4.0,4.0
99.0,0.0,4194.3589743589755,4105.128205128207,4189.743589743592,4167.179487179489,4186.666666666668,4159.487179487181,4317.435897435899,4196.410256410258,4206.153846153848,4195.897435897437,4194.871794871797,4217.435897435899,4164.615384615386,4145.641025641027,784.0,2059.0,2047.0,0.0,0.0,4.0,4.0,4.0,4.0,0.0,4.0,4.0,4.0,4.0,4.0,4.0,4.0,4.0,4.0,4.0,4.0
100.0,0.0,4148.20512820513,4032.8205128205145,4156.410256410258,4133.333333333335,4184.102564102565,4154.3589743589755,4292.307692307694,4165.641025641027,4167.179487179489,4182.564102564104,4154.871794871797,4185.641025641027,4128.71794871795,4097.94871794872,1295.0,2056.0,2049.0,0.0,0.0,4.0,4.0,4.0,4.0,0.0,4.0,4.0,4.0,4.0,4.0,4.0,4.0,4.0,4.0,4.0,4.0
101.0,0.0,4150.256410256412,4061.5384615384633,4162.051282051283,4130.256410256412,4186.153846153848,4163.076923076925,4285.641025641027,4171.282051282053,4169.743589743592,4186.666666666668,4164.102564102565,4198.46153846154,4133.333333333335,4115.384615384617,849.0,2055.0,2049.0,0.0,0.0,4.0,4.0,4.0,4.0,0.0,4.0,4.0,4.0,4.0,4.0,4.0,4.0,4.0,4.0,4.0,4.0
102.0,0.0,4196.410256410258,4142.564102564104,4191.282051282053,4167.692307692309,4183.589743589745,4161.538461538463,4248.71794871795,4191.794871794873,4198.97435897436,4198.46153846154,4204.102564102565,4233.846153846155,4174.871794871797,4166.666666666668,864.0,2055.0,2051.0,0.0,0.0,4.0,4.0,4.0,4.0,0.0,4.0,4.0,4.0,4.0,4.0,4.0,4.0,4.0,4.0,4.0,4.0
103.0,0.0,4213.846153846155,4160.512820512822,4198.46153846154,4184.102564102565,4187.692307692309,4152.307692307694,4231.794871794873,4202.051282051283,4213.333333333335,4204.615384615386,4213.333333333335,4241.538461538463,4187.179487179489,4170.256410256412,784.0,2054.0,2050.0,0.0,0.0,4.0,4.0,4.0,4.0,0.0,4.0,4.0,4.0,4.0,4.0,4.0,4.0,4.0,4.0,4.0,4.0
104.0,0.0,4179.487179487181,4095.384615384617,4175.384615384617,4155.384615384617,4186.666666666668,4150.769230769232,4233.333333333335,4182.564102564104,4188.20512820513,4193.846153846155,4178.97435897436,4204.102564102565,4146.153846153848,4123.589743589745,1295.0,2054.0,2049.0,0.0,0.0,4.0,4.0,4.0,4.0,0.0,4.0,4.0,4.0,4.0,4.0,4.0,4.0,4.0,4.0,4.0,4.0
105.0,0.0,4170.769230769232,4087.692307692309,4173.846153846155,4150.256410256412,4182.051282051283,4156.410256410258,4209.743589743592,4176.923076923078,4177.94871794872,4184.615384615386,4171.282051282053,4193.333333333335,4138.46153846154,4113.333333333335,849.0,2053.0,2049.0,0.0,0.0,4.0,4.0,4.0,4.0,0.0,4.0,4.0,4.0,4.0,4.0,4.0,4.0,4.0,4.0,4.0,4.0
106.0,0.0,4189.743589743592,4131.282051282053,4181.538461538463,4172.307692307694,4184.615384615386,4157.435897435899,4181.0256410256425,4195.384615384617,4198.46153846154,4186.153846153848,4193.333333333335,4214.3589743589755,4175.897435897437,4139.487179487181,864.0,2053.0,2048.0,0.0,0.0,4.0,4.0,4.0,4.0,0.0,4.0,4.0,4.0,4.0,4.0,4.0,4.0,4.0,4.0,4.0,4.0
107.0,0.0,4184.102564102565,4121.0256410256425,4168.20512820513,4175.384615384617,4183.589743589745,4154.871794871797,4190.769230769232,4192.307692307694,4201.0256410256425,4185.641025641027,4187.692307692309,4206.666666666668,4177.435897435899,4138.46153846154,784.0,2054.0,2047.0,0.0,0.0,4.0,4.0,4.0,4.0,0.0,4.0,4.0,4.0,4.0,4.0,4.0,4.0,4.0,4.0,4.0,4.0
108.0,0.0,4178.97435897436,4103.076923076925,4171.282051282053,4165.128205128207,4185.128205128207,4162.564102564104,4228.71794871795,4186.153846153848,4195.897435897437,4188.20512820513,4178.97435897436,4196.923076923078,4162.564102564104,4125.641025641027,1295.0,2051.0,2047.0,0.0,0.0,4.0,4.0,4.0,4.0,0.0,4.0,4.0,4.0,4.0,4.0,4.0,4.0,4.0,4.0,4.0,4.0
109.0,0.0,4195.384615384617,4118.97435897436,4194.871794871797,4169.23076923077,4186.153846153848,4169.23076923077,4248.71794871795,4215.897435897437,4215.897435897437,4201.0256410256425,4203.076923076925,4221.0256410256425,4184.102564102565,4138.97435897436,849.0,2051.0,2046.0,0.0,0.0,4.0,4.0,4.0,4.0,0.0,4.0,4.0,4.0,4.0,4.0,4.0,4.0,4.0,4.0,4.0,4.0
110.0,0.0,4198.46153846154,4131.794871794873,4195.897435897437,4169.743589743592,4184.615384615386,4164.102564102565,4234.871794871797,4228.71794871795,4224.615384615386,4204.615384615386,4214.871794871797,4229.23076923077,4194.871794871797,4151.794871794873,864.0,2052.0,2047.0,0.0,0.0,4.0,4.0,4.0,4.0,0.0,4.0,4.0,4.0,4.0,4.0,4.0,4.0,4.0,4.0,4.0,4.0
111.0,0.0,4177.435897435899,4103.589743589745,4173.333333333335,4161.0256410256425,4186.666666666668,4161.0256410256425,4232.8205128205145,4200.512820512822,4202.051282051283,4194.871794871797,4189.743589743592,4204.615384615386,4163.076923076925,4140.512820512822,784.0,2050.0,2048.0,0.0,0.0,4.0,4.0,4.0,4.0,0.0,4.0,4.0,4.0,4.0,4.0,4.0,4.0,4.0,4.0,4.0,4.0
112.0,0.0,4168.20512820513,4077.435897435899,4168.20512820513,4166.666666666668,4182.564102564104,4164.102564102565,4266.666666666668,4194.871794871797,4193.333333333335,4194.3589743589755,4184.102564102565,4202.564102564104,4146.666666666668,4132.8205128205145,1295.0,2050.0,2045.0,0.0,0.0,4.0,4.0,4.0,4.0,0.0,4.0,4.0,4.0,4.0,4.0,4.0,4.0,4.0,4.0,4.0,4.0
113.0,0.0,4187.179487179489,4105.641025641027,4181.538461538463,4167.692307692309,4186.153846153848,4163.589743589745,4258.46153846154,4212.8205128205145,4204.615384615386,4201.538461538463,4202.051282051283,4217.435897435899,4159.487179487181,4145.641025641027,849.0,2049.0,2046.0,0.0,0.0,4.0,4.0,4.0,4.0,0.0,4.0,4.0,4.0,4.0,4.0,4.0,4.0,4.0,4.0,4.0,4.0
114.0,0.0,4205.641025641027,4136.923076923078,4194.3589743589755,4176.410256410258,4187.692307692309,4162.051282051283,4194.3589743589755,4221.0256410256425,4216.410256410258,4201.538461538463,4210.256410256412,4228.71794871795,4166.153846153848,4158.97435897436,864.0,2049.0,2044.0,0.0,0.0,4.0,4.0,4.0,4.0,0.0,4.0,4.0,4.0,4.0,4.0,4.0,4.0,4.0,4.0,4.0,4.0
115.0,0.0,4197.435897435899,4109.743589743592,4193.333333333335,4186.666666666668,4182.564102564104,4163.589743589745,4151.282051282053,4216.923076923078,4214.3589743589755,4198.97435897436,4202.564102564104,4231.794871794873,4156.410256410258,4148.20512820513,784.0,2049.0,2044.0,0.0,0.0,4.0,4.0,4.0,4.0,0.0,4.0,4.0,4.0,4.0,4.0,4.0,4.0,4.0,4.0,4.0,4.0
116.0,0.0,4191.282051282053,4090.256410256412,4189.23076923077,4171.794871794873,4184.102564102565,4165.128205128207,4167.692307692309,4212.8205128205145,4210.256410256412,4200.000000000002,4200.000000000002,4227.692307692309,4150.256410256412,4140.512820512822,1295.0,2049.0,2044.0,0.0,0.0,4.0,4.0,4.0,4.0,0.0,4.0,4.0,4.0,4.0,4.0,4.0,4.0,4.0,4.0,4.0,4.0
117.0,0.0,4202.051282051283,4119.487179487181,4186.666666666668,4158.97435897436,4180.512820512822,4161.538461538463,4195.897435897437,4217.94871794872,4214.3589743589755,4200.000000000002,4201.538461538463,4226.153846153848,4157.435897435899,4158.46153846154,849.0,2049.0,2043.0,0.0,0.0,4.0,4.0,4.0,4.0,0.0,4.0,4.0,4.0,4.0,4.0,4.0,4.0,4.0,4.0,4.0,4.0
118.0,0.0,4203.589743589745,4131.794871794873,4182.564102564104,4180.000000000002,4182.051282051283,4163.076923076925,4197.94871794872,4216.923076923078,4217.435897435899,4198.97435897436,4203.076923076925,4227.692307692309,4163.076923076925,4175.897435897437,864.0,2048.0,2041.0,0.0,0.0,4.0,4.0,4.0,4.0,0.0,4.0,4.0,4.0,4.0,4.0,4.0,4.0,4.0,4.0,4.0,4.0
119.0,0.0,4191.794871794873,4085.641025641027,4181.538461538463,4184.615384615386,4183.589743589745,4167.692307692309,4220.512820512822,4207.179487179489,4213.846153846155,4200.000000000002,4199.487179487181,4222.564102564104,4151.794871794873,4157.94871794872,784.0,2046.0,2039.0,0.0,0.0,4.0,4.0,4.0,4.0,0.0,4.0,4.0,4.0,4.0,4.0,4.0,4.0,4.0,4.0,4.0,4.0
120.0,0.0,4184.102564102565,4049.743589743591,4181.0256410256425,4142.051282051283,4181.538461538463,4164.102564102565,4258.46153846154,4200.512820512822,4209.23076923077,4197.435897435899,4188.71794871795,4212.307692307694,4136.923076923078,4133.333333333335,1295.0,2046.0,2041.0,0.0,0.0,4.0,4.0,4.0,4.0,0.0,4.0,4.0,4.0,4.0,4.0,4.0,4.0,4.0,4.0,4.0,4.0
121.0,0.0,4195.384615384617,4097.435897435899,4183.076923076925,4134.3589743589755,4186.153846153848,4162.051282051283,4244.102564102565,4200.512820512822,4208.71794871795,4193.846153846155,4189.23076923077,4222.051282051283,4137.94871794872,4145.641025641027,849.0,2044.0,2039.0,0.0,0.0,4.0,4.0,4.0,4.0,0.0,4.0,4.0,4.0,4.0,4.0,4.0,4.0,4.0,4.0,4.0,4.0
122.0,0.0,4204.615384615386,4152.8205128205145,4180.000000000002,4172.307692307694,4185.128205128207,4158.46153846154,4210.256410256412,4201.0256410256425,4212.307692307694,4196.410256410258,4198.46153846154,4232.307692307694,4149.743589743592,4162.564102564104,864.0,2043.0,2040.0,0.0,0.0,4.0,4.0,4.0,4.0,0.0,4.0,4.0,4.0,4.0,4.0,4.0,4.0,4.0,4.0,4.0,4.0
123.0,0.0,4202.564102564104,4125.128205128207,4181.538461538463,4189.743589743592,4185.128205128207,4153.333333333335,4206.153846153848,4202.564102564104,4220.512820512822,4203.076923076925,4205.128205128207,4226.153846153848,4154.871794871797,4166.666666666668,784.0,2042.0,2041.0,0.0,0.0,4.0,4.0,4.0,4.0,0.0,4.0,4.0,4.0,4.0,4.0,4.0,4.0,4.0,4.0,4.0,4.0
124.0,0.0,4193.333333333335,4077.9487179487196,4188.20512820513,4180.000000000002,4186.666666666668,4155.897435897437,4182.564102564104,4201.538461538463,4216.923076923078,4202.051282051283,4203.589743589745,4217.94871794872,4148.20512820513,4161.0256410256425,1295.0,2042.0,2042.0,0.0,0.0,4.0,4.0,4.0,4.0,0.0,4.0,4.0,4.0,4.0,4.0,4.0,4.0,4.0,4.0,4.0,4.0
125.0,0.0,4183.076923076925,4077.435897435899,4180.512820512822,4166.153846153848,4184.102564102565,4158.46153846154,4177.94871794872,4192.8205128205145,4202.564102564104,4196.410256410258,4194.3589743589755,4209.23076923077,4136.923076923078,4149.743589743592,849.0,2040.0,2040.0,0.0,0.0,4.0,4.0,4.0,4.0,0.0,4.0,4.0,4.0,4.0,4.0,4.0,4.0,4.0,4.0,4.0,4.0
126.0,0.0,4188.71794871795,4100.000000000002,4177.94871794872,4156.923076923078,4185.641025641027,4156.923076923078,4243.589743589745,4186.153846153848,4205.128205128207,4199.487179487181,4192.8205128205145,4210.256410256412,4135.384615384617,4155.897435897437,864.0,2039.0,2039.0,0.0,0.0,4.0,4.0,4.0,4.0,0.0,4.0,4.0,4.0,4.0,4.0,4.0,4.0,4.0,4.0,4.0,4.0
127.0,0.0,4197.435897435899,4107.692307692309,4184.615384615386,4158.97435897436,4183.589743589745,4158.46153846154,4292.8205128205145,4187.179487179489,4211.282051282053,4200.000000000002,4194.871794871797,4215.897435897437,4137.94871794872,4161.0256410256425,784.0,2035.0,2038.0,0.0,0.0,4.0,4.0,4.0,4.0,0.0,4.0,4.0,4.0,4.0,4.0,4.0,4.0,4.0,4.0,4.0,4.0
128.0,0.0,4189.23076923077,4093.846153846155,4178.46153846154,4154.871794871797,4182.564102564104,4159.487179487181,4287.179487179489,4190.256410256412,4206.666666666668,4193.846153846155,4190.769230769232,4209.743589743592,4131.794871794873,4139.487179487181,1295.0,2032.0,2038.0,0.0,0.0,4.0,4.0,4.0,4.0,0.0,4.0,4.0,4.0,4.0,4.0,4.0,4.0,4.0,4.0,4.0,4.0
0.0,0.0,4170.256410256412,4085.1282051282064,4162.564102564104,4136.923076923078,4183.076923076925,4151.282051282053,4278.97435897436,4182.564102564104,4198.46153846154,4191.794871794873,4183.076923076925,4198.46153846154,4118.46153846154,4130.256410256412,819.0,2031.0,2039.0,0.0,0.0,4.0,4.0,4.0,4.0,0.0,4.0,4.0,4.0,4.0,4.0,4.0,4.0,4.0,4.0,4.0,4.0
1.0,0.0,4162.051282051283,4072.8205128205145,4155.897435897437,4141.0256410256425,4182.051282051283,4147.179487179489,4283.589743589745,4167.692307692309,4188.20512820513,4187.692307692309,4175.384615384617,4196.923076923078,4108.71794871795,4145.641025641027,849.0,2031.0,2040.0,0.0,0.0,4.0,4.0,4.0,4.0,0.0,4.0,4.0,4.0,4.0,4.0,4.0,4.0,4.0,4.0,4.0,4.0
2.0,0.0,4172.307692307694,4059.487179487181,4163.589743589745,4158.46153846154,4186.666666666668,4155.897435897437,4286.153846153848,4170.769230769232,4191.794871794873,4188.20512820513,4177.435897435899,4202.051282051283,4111.282051282053,4145.128205128207,842.0,2030.0,2041.0,0.0,0.0,4.0,4.0,4.0,4.0,0.0,4.0,4.0,4.0,4.0,4.0,4.0,4.0,4.0,4.0,4.0,4.0
3.0,0.0,4190.256410256412,4101.0256410256425,4170.256410256412,4159.487179487181,4182.564102564104,4151.794871794873,4291.282051282053,4190.769230769232,4213.846153846155,4200.000000000002,4196.410256410258,4208.20512820513,4128.71794871795,4144.615384615386,839.0,2029.0,2042.0,0.0,0.0,4.0,4.0,4.0,4.0,0.0,4.0,4.0,4.0,4.0,4.0,4.0,4.0,4.0,4.0,4.0,4.0
4.0,0.0,4186.153846153848,4133.333333333335,4161.538461538463,4147.692307692309,4180.512820512822,4142.564102564104,4289.743589743592,4185.128205128207,4210.769230769232,4200.000000000002,4194.871794871797,4202.564102564104,4126.666666666668,4149.743589743592,0.0,2028.0,2043.0,0.0,0.0,4.0,4.0,4.0,4.0,0.0,4.0,4.0,4.0,4.0,4.0,4.0,4.0,4.0,4.0,4.0,4.0
5.0,0.0,4162.051282051283,4082.564102564104,4148.20512820513,4129.743589743592,4186.153846153848,4144.615384615386,4278.97435897436,4159.487179487181,4186.153846153848,4188.71794871795,4170.769230769232,4184.615384615386,4104.102564102565,4130.256410256412,603.0,2029.0,2043.0,0.0,0.0,4.0,4.0,4.0,4.0,0.0,4.0,4.0,4.0,4.0,4.0,4.0,4.0,4.0,4.0,4.0,4.0
6.0,0.0,4164.615384615386,4049.230769230771,4159.487179487181,4134.3589743589755,4183.589743589745,4150.769230769232,4280.512820512822,4169.743589743592,4193.333333333335,4194.3589743589755,4175.384615384617,4189.743589743592,4108.20512820513,4124.102564102565,799.0,2030.0,2043.0,0.0,0.0,4.0,4.0,4.0,4.0,0.0,4.0,4.0,4.0,4.0,4.0,4.0,4.0,4.0,4.0,4.0,4.0
7.0,0.0,4189.743589743592,4079.487179487181,4182.051282051283,4162.564102564104,4182.564102564104,4152.8205128205145,4289.23076923077,4191.282051282053,4210.769230769232,4204.615384615386,4196.410256410258,4207.692307692309,4124.615384615386,4151.794871794873,841.0,2030.0,2046.0,0.0,0.0,4.0,4.0,4.0,4.0,0.0,4.0,4.0,4.0,4.0,4.0,4.0,4.0,4.0,4.0,4.0,4.0
8.0,0.0,4195.384615384617,4109.743589743592,4180.000000000002,4173.846153846155,4181.538461538463,4148.20512820513,4276.410256410258,4187.179487179489,4207.179487179489,4199.487179487181,4195.897435897437,4212.307692307694,4127.179487179489,4162.564102564104,831.0,2028.0,2044.0,0.0,0.0,4.0,4.0,4.0,4.0,0.0,4.0,4.0,4.0,4.0,4.0,4.0,4.0,4.0,4.0,4.0,4.0
9.0,0.0,4190.769230769232,4133.333333333335,4176.923076923078,4170.256410256412,4182.051282051283,4147.179487179489,4274.3589743589755,4190.256410256412,4210.256410256412,4198.46153846154,4197.435897435899,4216.923076923078,4128.71794871795,4154.3589743589755,301.0,2028.0,2044.0,0.0,0.0,4.0,4.0,4.0,4.0,0.0,4.0,4.0,4.0,4.0,4.0,4.0,4.0,4.0,4.0,4.0,4.0
10.0,0.0,4198.46153846154,4113.846153846155,4196.923076923078,4172.8205128205145,4183.589743589745,4153.333333333335,4308.71794871795,4210.769230769232,4226.666666666668,4205.128205128207,4211.794871794873,4228.71794871795,4133.846153846155,4166.666666666668,864.0,2028.0,2043.0,0.0,0.0,4.0,4.0,4.0,4.0,0.0,4.0,4.0,4.0,4.0,4.0,4.0,4.0,4.0,4.0,4.0,4.0
11.0,0.0,4189.23076923077,4046.1538461538476,4187.692307692309,4154.3589743589755,4178.97435897436,4151.282051282053,4298.97435897436,4197.94871794872,4211.282051282053,4201.0256410256425,4202.564102564104,4216.923076923078,4122.564102564104,4160.512820512822,810.0,2028.0,2042.0,0.0,0.0,4.0,4.0,4.0,4.0,0.0,4.0,4.0,4.0,4.0,4.0,4.0,4.0,4.0,4.0,4.0,4.0
12.0,0.0,4175.897435897437,4069.230769230771,4163.589743589745,4144.615384615386,4183.589743589745,4143.076923076925,4238.46153846154,4165.641025641027,4186.153846153848,4194.871794871797,4183.076923076925,4195.897435897437,4108.20512820513,4136.410256410258,954.0,2028.0,2041.0,0.0,0.0,4.0,4.0,4.0,4.0,0.0,4.0,4.0,4.0,4.0,4.0,4.0,4.0,4.0,4.0,4.0,4.0
13.0,0.0,4184.102564102565,4134.3589743589755,4175.384615384617,4173.333333333335,4187.179487179489,4141.0256410256425,4226.666666666668,4173.333333333335,4198.97435897436,4200.000000000002,4191.282051282053,4204.102564102565,4115.384615384617,4151.282051282053,847.0,2028.0,2040.0,0.0,0.0,4.0,4.0,4.0,4.0,0.0,4.0,4.0,4.0,4.0,4.0,4.0,4.0,4.0,4.0,4.0,4.0
14.0,0.0,4177.435897435899,4068.2051282051298,4184.615384615386,4165.641025641027,4183.589743589745,4145.128205128207,4264.102564102565,4190.256410256412,4207.179487179489,4201.0256410256425,4192.307692307694,4212.307692307694,4113.846153846155,4162.564102564104,864.0,2031.0,2039.0,0.0,0.0,4.0,4.0,4.0,4.0,0.0,4.0,4.0,4.0,4.0,4.0,4.0,4.0,4.0,4.0,4.0,4.0
15.0,0.0,4178.97435897436,4020.512820512822,4177.94871794872,4134.3589743589755,4183.076923076925,4149.23076923077,4276.923076923078,4183.589743589745,4193.846153846155,4196.410256410258,4181.538461538463,4206.666666666668,4108.71794871795,4153.333333333335,810.0,2030.0,2038.0,0.0,0.0,4.0,4.0,4.0,4.0,0.0,4.0,4.0,4.0,4.0,4.0,4.0,4.0,4.0,4.0,4.0,4.0
16.0,0.0,4203.076923076925,4127.179487179489,4178.46153846154,4149.743589743592,4181.538461538463,4143.076923076925,4254.3589743589755,4181.0256410256425,4195.897435897437,4200.512820512822,4190.256410256412,4206.153846153848,4122.564102564104,4160.512820512822,0.0,2030.0,2039.0,0.0,0.0,4.0,4.0,4.0,4.0,0.0,4.0,4.0,4.0,4.0,4.0,4.0,4.0,4.0,4.0,4.0,4.0
17.0,0.0,4200.512820512822,4183.076923076925,4175.384615384617,4177.435897435899,4187.179487179489,4137.94871794872,4246.153846153848,4189.743589743592,4209.743589743592,4207.179487179489,4200.000000000002,4211.282051282053,4124.102564102565,4161.0256410256425,0.0,2030.0,2038.0,0.0,0.0,4.0,4.0,4.0,4.0,0.0,4.0,4.0,4.0,4.0,4.0,4.0,4.0,4.0,4.0,4.0,4.0
18.0,0.0,4173.846153846155,4094.358974358976,4163.076923076925,4171.794871794873,4186.666666666668,4137.94871794872,4277.435897435899,4184.615384615386,4201.538461538463,4203.076923076925,4185.128205128207,4202.051282051283,4101.538461538463,4140.000000000002,0.0,2031.0,2038.0,0.0,0.0,4.0,4.0,4.0,4.0,0.0,4.0,4.0,4.0,4.0,4.0,4.0,4.0,4.0,4.0,4.0,4.0
19.0,0.0,4170.769230769232,4046.1538461538476,4165.641025641027,4153.846153846155,4181.538461538463,4139.487179487181,4314.3589743589755,4175.897435897437,4192.8205128205145,4197.94871794872,4177.94871794872,4189.743589743592,4102.564102564104,4145.128205128207,0.0,2031.0,2038.0,0.0,0.0,4.0,4.0,4.0,4.0,0.0,4.0,4.0,4.0,4.0,4.0,4.0,4.0,4.0,4.0,4.0,4.0
20.0,0.0,4177.435897435899,4092.3076923076937,4168.20512820513,4136.410256410258,4185.641025641027,4143.589743589745,4320.512820512822,4168.20512820513,4191.794871794873,4194.871794871797,4176.923076923078,4186.153846153848,4108.20512820513,4150.769230769232,0.0,2028.0,2037.0,0.0,0.0,4.0,4.0,4.0,4.0,0.0,4.0,4.0,4.0,4.0,4.0,4.0,4.0,4.0,4.0,4.0,4.0
21.0,0.0,4166.153846153848,4109.23076923077,4149.23076923077,4132.8205128205145,4181.538461538463,4140.512820512822,4307.179487179489,4152.8205128205145,4172.8205128205145,4186.153846153848,4159.487179487181,4178.97435897436,4081.5384615384633,4130.769230769232,0.0,2027.0,2037.0,0.0,0.0,4.0,4.0,4.0,4.0,0.0,4.0,4.0,4.0,4.0,4.0,4.0,4.0,4.0,4.0,4.0,4.0
22.0,0.0,4167.179487179489,4064.615384615386,4158.46153846154,4165.128205128207,4180.000000000002,4138.97435897436,4327.179487179489,4157.435897435899,4171.794871794873,4187.179487179489,4167.179487179489,4183.589743589745,4090.7692307692323,4145.641025641027,0.0,2028.0,2038.0,0.0,0.0,4.0,4.0,4.0,4.0,0.0,4.0,4.0,4.0,4.0,4.0,4.0,4.0,4.0,4.0,4.0,4.0
23.0,0.0,4179.487179487181,4070.256410256412,4178.97435897436,4170.769230769232,4184.102564102565,4145.641025641027,4363.076923076925,4172.307692307694,4191.794871794873,4198.46153846154,4188.71794871795,4195.384615384617,4122.051282051283,4171.282051282053,0.0,2029.0,2037.0,0.0,0.0,4.0,4.0,4.0,4.0,0.0,4.0,4.0,4.0,4.0,4.0,4.0,4.0,4.0,4.0,4.0,4.0
24.0,0.0,4184.102564102565,4138.97435897436,4169.23076923077,4141.0256410256425,4184.615384615386,4147.692307692309,4338.97435897436,4169.743589743592,4198.46153846154,4201.538461538463,4186.666666666668,4196.923076923078,4117.435897435899,4167.179487179489,0.0,2030.0,2038.0,0.0,0.0,4.0,4.0,4.0,4.0,0.0,4.0,4.0,4.0,4.0,4.0,4.0,4.0,4.0,4.0,4.0,4.0
25.0,0.0,4180.000000000002,4121.0256410256425,4169.23076923077,4137.94871794872,4186.153846153848,4147.179487179489,4283.589743589745,4171.794871794873,4199.487179487181,4198.97435897436,4186.666666666668,4196.410256410258,4110.769230769232,4165.128205128207,0.0,2029.0,2036.0,0.0,0.0,4.0,4.0,4.0,4.0,0.0,4.0,4.0,4.0,4.0,4.0,4.0,4.0,4.0,4.0,4.0,4.0
26.0,0.0,4184.102564102565,4070.7692307692323,4182.051282051283,4158.46153846154,4182.564102564104,4145.641025641027,4269.743589743592,4192.8205128205145,4206.666666666668,4198.97435897436,4199.487179487181,4203.076923076925,4123.076923076925,4167.692307692309,0.0,2031.0,2036.0,0.0,0.0,4.0,4.0,4.0,4.0,0.0,4.0,4.0,4.0,4.0,4.0,4.0,4.0,4.0,4.0,4.0,4.0
27.0,0.0,4194.871794871797,4106.666666666668,4178.46153846154,4170.769230769232,4183.076923076925,4147.179487179489,4296.923076923078,4204.615384615386,4210.256410256412,4200.512820512822,4203.076923076925,4205.128205128207,4123.589743589745,4167.179487179489,0.0,2033.0,2035.0,0.0,0.0,4.0,4.0,4.0,4.0,0.0,4.0,4.0,4.0,4.0,4.0,4.0,4.0,4.0,4.0,4.0,4.0
28.0,0.0,4193.333333333335,4143.076923076925,4176.923076923078,4170.769230769232,4185.128205128207,4149.743589743592,4311.282051282053,4197.435897435899,4208.71794871795,4201.0256410256425,4200.512820512822,4204.102564102565,4122.564102564104,4174.871794871797,0.0,2033.0,2035.0,0.0,0.0,4.0,4.0,4.0,4.0,0.0,4.0,4.0,4.0,4.0,4.0,4.0,4.0,4.0,4.0,4.0,4.0
29.0,0.0,4192.307692307694,4132.307692307694,4187.179487179489,4172.307692307694,4182.564102564104,4147.179487179489,4275.384615384617,4190.769230769232,4212.8205128205145,4198.46153846154,4204.615384615386,4212.307692307694,4134.871794871797,4177.435897435899,0.0,2033.0,2034.0,0.0,0.0,4.0,4.0,4.0,4.0,0.0,4.0,4.0,4.0,4.0,4.0,4.0,4.0,4.0,4.0,4.0,4.0
30.0,0.0,4195.897435897437,4109.23076923077,4186.666666666668,4176.410256410258,4184.615384615386,4146.153846153848,4247.692307692309,4185.641025641027,4209.23076923077,4193.846153846155,4205.128205128207,4212.8205128205145,4127.692307692309,4170.769230769232,0.0,2033.0,2033.0,0.0,0.0,4.0,4.0,4.0,4.0,0.0,4.0,4.0,4.0,4.0,4.0,4.0,4.0,4.0,4.0,4.0,4.0
31.0,0.0,4181.0256410256425,4088.2051282051298,4173.333333333335,4181.0256410256425,4181.538461538463,4148.71794871795,4288.20512820513,4181.0256410256425,4194.871794871797,4194.3589743589755,4195.384615384617,4199.487179487181,4114.3589743589755,4167.692307692309,0.0,2036.0,2032.0,0.0,0.0,4.0,4.0,4.0,4.0,0.0,4.0,4.0,4.0,4.0,4.0,4.0,4.0,4.0,4.0,4.0,4.0
32.0,0.0,4185.128205128207,4121.538461538463,4187.179487179489,4186.666666666668,4182.564102564104,4154.871794871797,4345.641025641027,4193.846153846155,4202.051282051283,4200.512820512822,4199.487179487181,4211.794871794873,4131.794871794873,4186.666666666668,0.0,2038.0,2032.0,0.0,0.0,4.0,4.0,4.0,4.0,0.0,4.0,4.0,4.0,4.0,4.0,4.0,4.0,4.0,4.0,4.0,4.0
33.0,0.0,4209.23076923077,4146.666666666668,4210.769230769232,4185.641025641027,4186.153846153848,4159.487179487181,4353.846153846155,4204.615384615386,4219.487179487181,4205.128205128207,4214.3589743589755,4237.94871794872,4143.589743589745,4205.128205128207,0.0,2038.0,2033.0,0.0,0.0,4.0,4.0,4.0,4.0,0.0,4.0,4.0,4.0,4.0,4.0,4.0,4.0,4.0,4.0,4.0,4.0
34.0,0.0,4196.410256410258,4099.487179487181,4193.333333333335,4170.769230769232,4180.512820512822,4155.897435897437,4345.128205128207,4186.666666666668,4204.615384615386,4198.46153846154,4202.564102564104,4222.051282051283,4123.589743589745,4185.128205128207,0.0,2041.0,2034.0,0.0,0.0,4.0,4.0,4.0,4.0,0.0,4.0,4.0,4.0,4.0,4.0,4.0,4.0,4.0,4.0,4.0,4.0
35.0,0.0,4192.307692307694,4122.564102564104,4181.538461538463,4174.3589743589755,4183.589743589745,4155.897435897437,4365.128205128207,4185.128205128207,4198.46153846154,4195.897435897437,4195.897435897437,4202.564102564104,4121.0256410256425,4177.435897435899,0.0,2042.0,2035.0,0.0,0.0,4.0,4.0,4.0,4.0,0.0,4.0,4.0,4.0,4.0,4.0,4.0,4.0,4.0,4.0,4.0,4.0
36.0,0.0,4206.666666666668,4181.0256410256425,4191.794871794873,4190.256410256412,4185.641025641027,4156.923076923078,4376.923076923078,4205.128205128207,4215.897435897437,4201.538461538463,4209.23076923077,4213.333333333335,4133.333333333335,4191.794871794873,0.0,2045.0,2036.0,0.0,0.0,4.0,4.0,4.0,4.0,0.0,4.0,4.0,4.0,4.0,4.0,4.0,4.0,4.0,4.0,4.0,4.0
37.0,0.0,4179.487179487181,4123.076923076925,4175.384615384617,4175.384615384617,4184.615384615386,4149.743589743592,4355.897435897437,4193.846153846155,4206.153846153848,4197.435897435899,4197.94871794872,4206.153846153848,4119.487179487181,4177.435897435899,0.0,2046.0,2037.0,0.0,0.0,4.0,4.0,4.0,4.0,0.0,4.0,4.0,4.0,4.0,4.0,4.0,4.0,4.0,4.0,4.0,4.0
38.0,0.0,4164.102564102565,4075.8974358974374,4164.102564102565,4163.076923076925,4186.153846153848,4149.23076923077,4339.487179487181,4180.512820512822,4193.846153846155,4193.333333333335,4191.794871794873,4193.846153846155,4123.589743589745,4167.179487179489,0.0,2047.0,2039.0,0.0,0.0,4.0,4.0,4.0,4.0,0.0,4.0,4.0,4.0,4.0,4.0,4.0,4.0,4.0,4.0,4.0,4.0
39.0,0.0,4201.0256410256425,4132.307692307694,4192.307692307694,4169.743589743592,4180.512820512822,4156.410256410258,4354.3589743589755,4201.538461538463,4217.435897435899,4201.0256410256425,4213.846153846155,4218.46153846154,4151.794871794873,4180.000000000002,0.0,2049.0,2041.0,0.0,0.0,4.0,4.0,4.0,4.0,0.0,4.0,4.0,4.0,4.0,4.0,4.0,4.0,4.0,4.0,4.0,4.0
40.0,0.0,4206.666666666668,4148.71794871795,4198.97435897436,4165.128205128207,4180.512820512822,4156.410256410258,4356.923076923078,4204.615384615386,4223.589743589745,4204.615384615386,4211.282051282053,4228.20512820513,4142.051282051283,4176.410256410258,0.0,2049.0,2045.0,0.0,0.0,4.0,4.0,4.0,4.0,0.0,4.0,4.0,4.0,4.0,4.0,4.0,4.0,4.0,4.0,4.0,4.0
41.0,0.0,4183.076923076925,4127.179487179489,4178.46153846154,4183.589743589745,4183.076923076925,4149.743589743592,4327.179487179489,4194.871794871797,4211.282051282053,4203.589743589745,4205.128205128207,4208.71794871795,4134.871794871797,4185.641025641027,0.0,2051.0,2044.0,0.0,0.0,4.0,4.0,4.0,4.0,0.0,4.0,4.0,4.0,4.0,4.0,4.0,4.0,4.0,4.0,4.0,4.0
42.0,0.0,4184.102564102565,4123.076923076925,4179.487179487181,4191.282051282053,4185.128205128207,4150.769230769232,4304.102564102565,4201.0256410256425,4215.384615384617,4207.179487179489,4220.000000000002,4204.615384615386,4150.769230769232,4207.179487179489,0.0,2051.0,2044.0,0.0,0.0,4.0,4.0,4.0,4.0,0.0,4.0,4.0,4.0,4.0,4.0,4.0,4.0,4.0,4.0,4.0,4.0
43.0,0.0,4165.641025641027,4082.0512820512836,4171.794871794873,4129.23076923077,4183.076923076925,4149.743589743592,4292.8205128205145,4184.615384615386,4199.487179487181,4202.051282051283,4198.46153846154,4191.794871794873,4127.692307692309,4173.846153846155,0.0,2051.0,2043.0,0.0,0.0,4.0,4.0,4.0,4.0,0.0,4.0,4.0,4.0,4.0,4.0,4.0,4.0,4.0,4.0,4.0,4.0
44.0,0.0,4155.897435897437,4100.512820512822,4162.564102564104,4115.384615384617,4177.94871794872,4145.641025641027,4307.692307692309,4180.000000000002,4190.769230769232,4194.871794871797,4183.076923076925,4187.692307692309,4113.846153846155,4153.333333333335,0.0,2051.0,2043.0,0.0,0.0,4.0,4.0,4.0,4.0,0.0,4.0,4.0,4.0,4.0,4.0,4.0,4.0,4.0,4.0,4.0,4.0
45.0,0.0,4198.97435897436,4182.051282051283,4188.20512820513,4195.897435897437,4184.615384615386,4150.769230769232,4343.076923076925,4208.20512820513,4216.923076923078,4204.615384615386,4216.410256410258,4215.897435897437,4149.23076923077,4194.871794871797,0.0,2050.0,2043.0,0.0,0.0,4.0,4.0,4.0,4.0,0.0,4.0,4.0,4.0,4.0,4.0,4.0,4.0,4.0,4.0,4.0,4.0
46.0,0.0,4212.8205128205145,4162.051282051283,4202.564102564104,4220.512820512822,4184.615384615386,4150.256410256412,4352.307692307694,4213.333333333335,4224.102564102565,4210.769230769232,4225.641025641027,4226.153846153848,4161.538461538463,4207.179487179489,0.0,2050.0,2045.0,0.0,0.0,4.0,4.0,4.0,4.0,0.0,4.0,4.0,4.0,4.0,4.0,4.0,4.0,4.0,4.0,4.0,4.0
47.0,0.0,4186.153846153848,4115.384615384617,4187.692307692309,4175.384615384617,4180.000000000002,4147.692307692309,4341.0256410256425,4197.435897435899,4208.71794871795,4206.153846153848,4207.179487179489,4211.282051282053,4150.769230769232,4193.846153846155,0.0,2050.0,2046.0,0.0,0.0,4.0,4.0,4.0,4.0,0.0,4.0,4.0,4.0,4.0,4.0,4.0,4.0,4.0,4.0,4.0,4.0
48.0,0.0,4189.743589743592,4151.794871794873,4186.666666666668,4165.128205128207,4184.615384615386,4151.282051282053,4321.538461538463,4191.794871794873,4204.102564102565,4202.564102564104,4205.128205128207,4217.435897435899,4153.333333333335,4205.641025641027,0.0,2050.0,2044.0,0.0,0.0,4.0,4.0,4.0,4.0,0.0,4.0,4.0,4.0,4.0,4.0,4.0,4.0,4.0,4.0,4.0,4.0
49.0,0.0,4201.0256410256425,4145.641025641027,4191.794871794873,4176.923076923078,4183.589743589745,4147.692307692309,4304.102564102565,4190.769230769232,4204.615384615386,4201.0256410256425,4205.641025641027,4227.692307692309,4146.153846153848,4205.641025641027,0.0,2048.0,2044.0,0.0,0.0,4.0,4.0,4.0,4.0,0.0,4.0,4.0,4.0,4.0,4.0,4.0,4.0,4.0,4.0,4.0,4.0
50.0,0.0,4186.153846153848,4088.71794871795,4186.153846153848,4171.794871794873,4182.564102564104,4145.641025641027,4312.8205128205145,4185.128205128207,4198.46153846154,4201.0256410256425,4198.97435897436,4212.8205128205145,4130.769230769232,4184.615384615386,0.0,2047.0,2046.0,0.0,0.0,4.0,4.0,4.0,4.0,0.0,4.0,4.0,4.0,4.0,4.0,4.0,4.0,4.0,4.0,4.0,4.0
51.0,0.0,4190.769230769232,4126.666666666668,4186.666666666668,4170.769230769232,4181.538461538463,4157.435897435899,4311.282051282053,4185.641025641027,4196.410256410258,4200.512820512822,4198.46153846154,4206.153846153848,4136.923076923078,4183.589743589745,0.0,2048.0,2048.0,0.0,0.0,4.0,4.0,4.0,4.0,0.0,4.0,4.0,4.0,4.0,4.0,4.0,4.0,4.0,4.0,4.0,4.0
52.0,0.0,4212.8205128205145,4193.333333333335,4192.8205128205145,4171.794871794873,4180.000000000002,4167.179487179489,4290.769230769232,4195.384615384617,4202.564102564104,4200.000000000002,4203.076923076925,4219.487179487181,4149.23076923077,4197.94871794872,0.0,2047.0,2048.0,0.0,0.0,4.0,4.0,4.0,4.0,0.0,4.0,4.0,4.0,4.0,4.0,4.0,4.0,4.0,4.0,4.0,4.0
53.0,0.0,4204.102564102565,4162.051282051283,4188.20512820513,4166.153846153848,4184.102564102565,4162.564102564104,4296.923076923078,4198.97435897436,4202.564102564104,4200.000000000002,4202.564102564104,4222.051282051283,4138.97435897436,4200.512820512822,0.0,2047.0,2048.0,0.0,0.0,4.0,4.0,4.0,4.0,0.0,4.0,4.0,4.0,4.0,4.0,4.0,4.0,4.0,4.0,4.0,4.0
54.0,0.0,4182.564102564104,4092.3076923076937,4178.97435897436,4173.846153846155,4181.0256410256425,4157.435897435899,4308.20512820513,4196.410256410258,4195.897435897437,4199.487179487181,4198.97435897436,4213.846153846155,4130.256410256412,4193.333333333335,0.0,2048.0,2048.0,0.0,0.0,4.0,4.0,4.0,4.0,0.0,4.0,4.0,4.0,4.0,4.0,4.0,4.0,4.0,4.0,4.0,4.0
55.0,0.0,4198.46153846154,4111.282051282053,4190.769230769232,4193.333333333335,4183.076923076925,4166.666666666668,4308.20512820513,4207.692307692309,4211.794871794873,4203.589743589745,4214.3589743589755,4224.615384615386,4158.46153846154,4203.589743589745,0.0,2049.0,2047.0,0.0,0.0,4.0,4.0,4.0,4.0,0.0,4.0,4.0,4.0,4.0,4.0,4.0,4.0,4.0,4.0,4.0,4.0
56.0,0.0,4211.282051282053,4180.512820512822,4196.923076923078,4181.0256410256425,4186.153846153848,4166.153846153848,4330.256410256412,4213.846153846155,4224.102564102565,4206.666666666668,4224.615384615386,4226.666666666668,4169.743589743592,4208.71794871795,0.0,2050.0,2043.0,0.0,0.0,4.0,4.0,4.0,4.0,0.0,4.0,4.0,4.0,4.0,4.0,4.0,4.0,4.0,4.0,4.0,4.0
57.0,0.0,4192.8205128205145,4172.8205128205145,4185.128205128207,4159.487179487181,4182.564102564104,4158.97435897436,4347.692307692309,4196.923076923078,4200.000000000002,4199.487179487181,4200.512820512822,4206.153846153848,4132.8205128205145,4183.589743589745,0.0,2050.0,2043.0,0.0,0.0,4.0,4.0,4.0,4.0,0.0,4.0,4.0,4.0,4.0,4.0,4.0,4.0,4.0,4.0,4.0,4.0
58.0,0.0,4195.384615384617,4105.641025641027,4196.410256410258,4182.564102564104,4182.051282051283,4170.769230769232,4334.3589743589755,4207.692307692309,4201.0256410256425,4201.0256410256425,4202.564102564104,4214.871794871797,4128.71794871795,4179.487179487181,0.0,2049.0,2041.0,0.0,0.0,4.0,4.0,4.0,4.0,0.0,4.0,4.0,4.0,4.0,4.0,4.0,4.0,4.0,4.0,4.0,4.0
59.0,0.0,4201.538461538463,4094.358974358976,4194.871794871797,4189.23076923077,4181.0256410256425,4168.71794871795,4317.94871794872,4218.97435897436,4214.3589743589755,4207.692307692309,4217.435897435899,4222.564102564104,4156.410256410258,4196.923076923078,0.0,2049.0,2042.0,0.0,0.0,4.0,4.0,4.0,4.0,0.0,4.0,4.0,4.0,4.0,4.0,4.0,4.0,4.0,4.0,4.0,4.0
60.0,0.0,4187.692307692309,4150.256410256412,4169.23076923077,4154.871794871797,4186.666666666668,4151.794871794873,4310.256410256412,4192.8205128205145,4191.794871794873,4201.538461538463,4195.384615384617,4200.000000000002,4142.051282051283,4198.46153846154,0.0,2048.0,2039.0,0.0,0.0,4.0,4.0,4.0,4.0,0.0,4.0,4.0,4.0,4.0,4.0,4.0,4.0,4.0,4.0,4.0,4.0
61.0,0.0,4195.384615384617,4192.8205128205145,4178.97435897436,4164.102564102565,4186.666666666668,4159.487179487181,4281.538461538463,4196.410256410258,4193.846153846155,4200.000000000002,4197.435897435899,4201.538461538463,4129.743589743592,4200.000000000002,0.0,2048.0,2038.0,0.0,0.0,4.0,4.0,4.0,4.0,0.0,4.0,4.0,4.0,4.0,4.0,4.0,4.0,4.0,4.0,4.0,4.0
62.0,0.0,4206.153846153848,4160.000000000002,4201.0256410256425,4198.46153846154,4179.487179487181,4170.256410256412,4248.71794871795,4223.076923076925,4221.0256410256425,4207.179487179489,4225.641025641027,4221.538461538463,4154.3589743589755,4205.128205128207,0.0,2046.0,2038.0,0.0,0.0,4.0,4.0,4.0,4.0,0.0,4.0,4.0,4.0,4.0,4.0,4.0,4.0,4.0,4.0,4.0,4.0
63.0,0.0,4201.0256410256425,4124.615384615386,4197.94871794872,4191.794871794873,4184.615384615386,4164.615384615386,4242.564102564104,4206.153846153848,4209.743589743592,4203.589743589745,4214.871794871797,4217.435897435899,4161.0256410256425,4202.051282051283,0.0,2045.0,2038.0,0.0,0.0,4.0,4.0,4.0,4.0,0.0,4.0,4.0,4.0,4.0,4.0,4.0,4.0,4.0,4.0,4.0,4.0
64.0,0.0,4207.692307692309,4152.8205128205145,4195.384615384617,4176.410256410258,4186.153846153848,4167.179487179489,4222.564102564104,4189.23076923077,4197.94871794872,4198.46153846154,4198.97435897436,4217.94871794872,4146.153846153848,4202.051282051283,823.0,2047.0,2037.0,0.0,0.0,4.0,4.0,4.0,4.0,0.0,4.0,4.0,4.0,4.0,4.0,4.0,4.0,4.0,4.0,4.0,4.0
65.0,0.0,4221.538461538463,4171.794871794873,4206.666666666668,4184.102564102565,4183.076923076925,4179.487179487181,4189.743589743592,4212.8205128205145,4218.46153846154,4203.076923076925,4216.410256410258,4237.435897435899,4152.307692307694,4213.846153846155,855.0,2046.0,2036.0,0.0,0.0,4.0,4.0,4.0,4.0,0.0,4.0,4.0,4.0,4.0,4.0,4.0,4.0,4.0,4.0,4.0,4.0
66.0,0.0,4223.076923076925,4176.923076923078,4207.692307692309,4196.923076923078,4182.564102564104,4176.410256410258,4217.94871794872,4222.564102564104,4226.153846153848,4206.666666666668,4226.666666666668,4240.512820512822,4169.743589743592,4231.794871794873,843.0,2046.0,2038.0,0.0,0.0,4.0,4.0,4.0,4.0,0.0,4.0,4.0,4.0,4.0,4.0,4.0,4.0,4.0,4.0,4.0,4.0
67.0,0.0,4210.256410256412,4175.384615384617,4191.794871794873,4202.564102564104,4181.0256410256425,4164.615384615386,4276.410256410258,4203.076923076925,4212.8205128205145,4201.0256410256425,4214.871794871797,4224.615384615386,4166.666666666668,4226.153846153848,846.0,2045.0,2037.0,0.0,0.0,4.0,4.0,4.0,4.0,0.0,4.0,4.0,4.0,4.0,4.0,4.0,4.0,4.0,4.0,4.0,4.0
68.0,0.0,4203.589743589745,4160.512820512822,4189.23076923077,4193.846153846155,4184.615384615386,4167.692307692309,4275.897435897437,4203.076923076925,4211.794871794873,4200.000000000002,4211.794871794873,4223.589743589745,4154.871794871797,4200.000000000002,0.0,2045.0,2035.0,0.0,0.0,4.0,4.0,4.0,4.0,0.0,4.0,4.0,4.0,4.0,4.0,4.0,4.0,4.0,4.0,4.0,4.0
69.0,0.0,4221.0256410256425,4173.333333333335,4208.20512820513,4199.487179487181,4183.076923076925,4172.307692307694,4266.666666666668,4228.71794871795,4230.769230769232,4210.769230769232,4227.179487179489,4241.538461538463,4166.153846153848,4208.20512820513,603.0,2045.0,2035.0,0.0,0.0,4.0,4.0,4.0,4.0,0.0,4.0,4.0,4.0,4.0,4.0,4.0,4.0,4.0,4.0,4.0,4.0
70.0,0.0,4228.71794871795,4177.94871794872,4215.897435897437,4222.564102564104,4182.564102564104,4170.256410256412,4281.0256410256425,4231.794871794873,4234.3589743589755,4216.923076923078,4236.410256410258,4238.97435897436,4178.97435897436,4232.8205128205145,803.0,2044.0,2034.0,0.0,0.0,4.0,4.0,4.0,4.0,0.0,4.0,4.0,4.0,4.0,4.0,4.0,4.0,4.0,4.0,4.0,4.0
71.0,0.0,4213.846153846155,4166.153846153848,4199.487179487181,4208.20512820513,4185.641025641027,4168.71794871795,4228.20512820513,4205.128205128207,4214.3589743589755,4205.641025641027,4220.512820512822,4221.0256410256425,4164.102564102565,4217.94871794872,859.0,2044.0,2035.0,0.0,0.0,4.0,4.0,4.0,4.0,0.0,4.0,4.0,4.0,4.0,4.0,4.0,4.0,4.0,4.0,4.0,4.0
72.0,0.0,4208.20512820513,4181.538461538463,4184.615384615386,4187.179487179489,4182.051282051283,4166.153846153848,4149.743589743592,4197.94871794872,4202.564102564104,4196.410256410258,4205.128205128207,4220.512820512822,4151.794871794873,4202.051282051283,848.0,2044.0,2035.0,0.0,0.0,4.0,4.0,4.0,4.0,0.0,4.0,4.0,4.0,4.0,4.0,4.0,4.0,4.0,4.0,4.0,4.0
73.0,0.0,4204.615384615386,4180.512820512822,4185.641025641027,4204.615384615386,4183.076923076925,4163.076923076925,4136.410256410258,4201.538461538463,4206.666666666668,4200.000000000002,4204.615384615386,4218.46153846154,4153.846153846155,4211.794871794873,302.0,2044.0,2038.0,0.0,0.0,4.0,4.0,4.0,4.0,0.0,4.0,4.0,4.0,4.0,4.0,4.0,4.0,4.0,4.0,4.0,4.0
74.0,0.0,4189.743589743592,4134.871794871797,4185.641025641027,4206.153846153848,4181.538461538463,4159.487179487181,4136.923076923078,4190.256410256412,4204.615384615386,4200.512820512822,4204.102564102565,4207.692307692309,4151.282051282053,4202.564102564104,866.0,2044.0,2036.0,0.0,0.0,4.0,4.0,4.0,4.0,0.0,4.0,4.0,4.0,4.0,4.0,4.0,4.0,4.0,4.0,4.0,4.0
75.0,0.0,4194.3589743589755,4141.538461538463,4185.641025641027,4184.615384615386,4182.051282051283,4161.0256410256425,4155.384615384617,4191.282051282053,4203.076923076925,4197.435897435899,4210.769230769232,4213.333333333335,4153.846153846155,4190.769230769232,820.0,2044.0,2036.0,0.0,0.0,4.0,4.0,4.0,4.0,0.0,4.0,4.0,4.0,4.0,4.0,4.0,4.0,4.0,4.0,4.0,4.0
76.0,0.0,4207.179487179489,4177.435897435899,4189.23076923077,4183.076923076925,4184.102564102565,4165.128205128207,4211.282051282053,4203.589743589745,4211.282051282053,4201.0256410256425,4220.000000000002,4221.538461538463,4155.897435897437,4201.538461538463,873.0,2045.0,2036.0,0.0,0.0,4.0,4.0,4.0,4.0,0.0,4.0,4.0,4.0,4.0,4.0,4.0,4.0,4.0,4.0,4.0,4.0
77.0,0.0,4200.512820512822,4162.051282051283,4185.128205128207,4191.282051282053,4178.46153846154,4163.076923076925,4227.692307692309,4198.97435897436,4206.666666666668,4201.538461538463,4212.8205128205145,4212.8205128205145,4150.256410256412,4200.512820512822,854.0,2047.0,2037.0,0.0,0.0,4.0,4.0,4.0,4.0,0.0,4.0,4.0,4.0,4.0,4.0,4.0,4.0,4.0,4.0,4.0,4.0
78.0,0.0,4205.641025641027,4174.871794871797,4190.256410256412,4198.46153846154,4183.589743589745,4163.589743589745,4243.589743589745,4201.0256410256425,4209.743589743592,4203.589743589745,4214.871794871797,4216.923076923078,4161.538461538463,4202.564102564104,866.0,2048.0,2037.0,0.0,0.0,4.0,4.0,4.0,4.0,0.0,4.0,4.0,4.0,4.0,4.0,4.0,4.0,4.0,4.0,4.0,4.0
79.0,0.0,4211.794871794873,4192.8205128205145,4190.256410256412,4206.666666666668,4183.076923076925,4163.076923076925,4280.000000000002,4207.692307692309,4218.46153846154,4205.641025641027,4221.538461538463,4224.615384615386,4174.3589743589755,4209.23076923077,820.0,2046.0,2037.0,0.0,0.0,4.0,4.0,4.0,4.0,0.0,4.0,4.0,4.0,4.0,4.0,4.0,4.0,4.0,4.0,4.0,4.0
80.0,0.0,4193.846153846155,4151.794871794873,4174.871794871797,4187.179487179489,4179.487179487181,4163.076923076925,4246.666666666668,4189.743589743592,4202.051282051283,4198.97435897436,4203.076923076925,4212.307692307694,4149.743589743592,4191.282051282053,873.0,2044.0,2038.0,0.0,0.0,4.0,4.0,4.0,4.0,0.0,4.0,4.0,4.0,4.0,4.0,4.0,4.0,4.0,4.0,4.0,4.0
81.0,0.0,4192.8205128205145,4150.256410256412,4181.0256410256425,4164.102564102565,4184.102564102565,4165.128205128207,4205.641025641027,4187.179487179489,4198.97435897436,4196.410256410258,4197.435897435899,4212.307692307694,4138.97435897436,4185.128205128207,854.0,2045.0,2037.0,0.0,0.0,4.0,4.0,4.0,4.0,0.0,4.0,4.0,4.0,4.0,4.0,4.0,4.0,4.0,4.0,4.0,4.0
82.0,0.0,4199.487179487181,4184.102564102565,4188.20512820513,4174.3589743589755,4183.076923076925,4157.435897435899,4242.564102564104,4200.512820512822,4208.71794871795,4198.97435897436,4206.153846153848,4213.846153846155,4155.897435897437,4196.410256410258,866.0,2044.0,2038.0,0.0,0.0,4.0,4.0,4.0,4.0,0.0,4.0,4.0,4.0,4.0,4.0,4.0,4.0,4.0,4.0,4.0,4.0
83.0,0.0,4184.615384615386,4159.487179487181,4175.897435897437,4194.3589743589755,4183.589743589745,4153.846153846155,4276.923076923078,4189.23076923077,4194.871794871797,4196.923076923078,4197.94871794872,4202.051282051283,4146.666666666668,4190.256410256412,820.0,2043.0,2039.0,0.0,0.0,4.0,4.0,4.0,4.0,0.0,4.0,4.0,4.0,4.0,4.0,4.0,4.0,4.0,4.0,4.0,4.0
84.0,0.0,4185.641025641027,4141.0256410256425,4175.384615384617,4191.794871794873,4181.538461538463,4164.615384615386,4271.794871794873,4184.615384615386,4191.282051282053,4196.410256410258,4199.487179487181,4206.666666666668,4138.97435897436,4187.692307692309,873.0,2042.0,2041.0,0.0,0.0,4.0,4.0,4.0,4.0,0.0,4.0,4.0,4.0,4.0,4.0,4.0,4.0,4.0,4.0,4.0,4.0
85.0,0.0,4200.512820512822,4169.23076923077,4190.256410256412,4174.871794871797,4180.512820512822,4169.23076923077,4268.20512820513,4202.051282051283,4210.769230769232,4200.512820512822,4212.307692307694,4217.94871794872,4158.97435897436,4200.000000000002,854.0,2043.0,2043.0,0.0,0.0,4.0,4.0,4.0,4.0,0.0,4.0,4.0,4.0,4.0,4.0,4.0,4.0,4.0,4.0,4.0,4.0
86.0,0.0,4196.410256410258,4175.897435897437,4188.71794871795,4178.97435897436,4183.589743589745,4166.666666666668,4265.641025641027,4205.128205128207,4209.743589743592,4201.538461538463,4206.666666666668,4208.20512820513,4155.897435897437,4197.435897435899,866.0,2044.0,2046.0,0.0,0.0,4.0,4.0,4.0,4.0,0.0,4.0,4.0,4.0,4.0,4.0,4.0,4.0,4.0,4.0,4.0,4.0
87.0,0.0,4191.794871794873,4172.8205128205145,4177.94871794872,4190.256410256412,4180.000000000002,4168.20512820513,4260.000000000002,4193.333333333335,4194.871794871797,4199.487179487181,4197.435897435899,4199.487179487181,4140.512820512822,4184.615384615386,820.0,2045.0,2046.0,0.0,0.0,4.0,4.0,4.0,4.0,0.0,4.0,4.0,4.0,4.0,4.0,4.0,4.0,4.0,4.0,4.0,4.0
88.0,0.0,4210.256410256412,4183.076923076925,4190.769230769232,4192.307692307694,4181.538461538463,4175.897435897437,4255.897435897437,4199.487179487181,4205.128205128207,4202.564102564104,4207.179487179489,4215.384615384617,4150.256410256412,4195.897435897437,873.0,2043.0,2046.0,0.0,0.0,4.0,4.0,4.0,4.0,0.0,4.0,4.0,4.0,4.0,4.0,4.0,4.0,4.0,4.0,4.0,4.0
89.0,0.0,4209.743589743592,4158.97435897436,4198.97435897436,4193.846153846155,4182.564102564104,4174.871794871797,4253.846153846155,4212.307692307694,4215.384615384617,4206.666666666668,4212.8205128205145,4222.564102564104,4151.794871794873,4204.615384615386,854.0,2046.0,2049.0,0.0,0.0,4.0,4.0,4.0,4.0,0.0,4.0,4.0,4.0,4.0,4.0,4.0,4.0,4.0,4.0,4.0,4.0
90.0,0.0,4181.538461538463,4133.846153846155,4173.333333333335,4178.97435897436,4181.538461538463,4165.641025641027,4260.512820512822,4206.666666666668,4201.538461538463,4202.564102564104,4198.97435897436,4200.000000000002,4126.153846153848,4173.333333333335,866.0,2045.0,2050.0,0.0,0.0,4.0,4.0,4.0,4.0,0.0,4.0,4.0,4.0,4.0,4.0,4.0,4.0,4.0,4.0,4.0,4.0
91.0,0.0,4190.769230769232,4166.666666666668,4174.3589743589755,4174.871794871797,4188.20512820513,4168.20512820513,4251.282051282053,4208.71794871795,4202.564102564104,4204.102564102565,4205.128205128207,4205.641025641027,4135.384615384617,4167.179487179489,820.0,2046.0,2050.0,0.0,0.0,4.0,4.0,4.0,4.0,0.0,4.0,4.0,4.0,4.0,4.0,4.0,4.0,4.0,4.0,4.0,4.0
92.0,0.0,4218.46153846154,4198.46153846154,4201.538461538463,4200.512820512822,4183.589743589745,4168.20512820513,4213.846153846155,4222.051282051283,4218.97435897436,4213.846153846155,4227.179487179489,4232.307692307694,4173.846153846155,4201.538461538463,873.0,2045.0,2050.0,0.0,0.0,4.0,4.0,4.0,4.0,0.0,4.0,4.0,4.0,4.0,4.0,4.0,4.0,4.0,4.0,4.0,4.0
93.0,0.0,4204.102564102565,4180.000000000002,4189.743589743592,4201.0256410256425,4179.487179487181,4164.615384615386,4195.384615384617,4210.256410256412,4205.641025641027,4209.23076923077,4212.8205128205145,4212.8205128205145,4161.0256410256425,4206.153846153848,854.0,2045.0,2050.0,0.0,0.0,4.0,4.0,4.0,4.0,0.0,4.0,4.0,4.0,4.0,4.0,4.0,4.0,4.0,4.0,4.0,4.0
94.0,0.0,4193.846153846155,4165.128205128207,4171.282051282053,4191.282051282053,4183.076923076925,4167.179487179489,4220.000000000002,4193.846153846155,4188.20512820513,4201.538461538463,4191.282051282053,4192.8205128205145,4141.538461538463,4205.641025641027,866.0,2045.0,2052.0,0.0,0.0,4.0,4.0,4.0,4.0,0.0,4.0,4.0,4.0,4.0,4.0,4.0,4.0,4.0,4.0,4.0,4.0
95.0,0.0,4219.487179487181,4188.71794871795,4193.846153846155,4215.897435897437,4181.538461538463,4170.256410256412,4232.307692307694,4209.743589743592,4211.282051282053,4212.8205128205145,4215.384615384617,4225.641025641027,4174.3589743589755,4224.615384615386,820.0,2045.0,2052.0,0.0,0.0,4.0,4.0,4.0,4.0,0.0,4.0,4.0,4.0,4.0,4.0,4.0,4.0,4.0,4.0,4.0,4.0
96.0,0.0,4222.564102564104,4192.307692307694,4203.589743589745,4218.97435897436,4182.564102564104,4169.23076923077,4212.307692307694,4229.23076923077,4232.307692307694,4223.076923076925,4231.794871794873,4242.051282051283,4184.615384615386,4210.769230769232,873.0,2045.0,2052.0,0.0,0.0,4.0,4.0,4.0,4.0,0.0,4.0,4.0,4.0,4.0,4.0,4.0,4.0,4.0,4.0,4.0,4.0
97.0,0.0,4193.333333333335,4166.153846153848,4173.333333333335,4180.000000000002,4184.102564102565,4164.615384615386,4208.20512820513,4217.94871794872,4214.3589743589755,4213.846153846155,4201.538461538463,4212.307692307694,4150.769230769232,4177.94871794872,854.0,2046.0,2051.0,0.0,0.0,4.0,4.0,4.0,4.0,0.0,4.0,4.0,4.0,4.0,4.0,4.0,4.0,4.0,4.0,4.0,4.0
98.0,0.0,4185.641025641027,4176.923076923078,4167.179487179489,4175.384615384617,4185.641025641027,4166.666666666668,4223.076923076925,4200.512820512822,4198.97435897436,4207.179487179489,4187.179487179489,4198.46153846154,4143.589743589745,4185.641025641027,866.0,2046.0,2051.0,0.0,0.0,4.0,4.0,4.0,4.0,0.0,4.0,4.0,4.0,4.0,4.0,4.0,4.0,4.0,4.0,4.0,4.0
99.0,0.0,4194.3589743589755,4177.435897435899,4185.128205128207,4197.435897435899,4183.589743589745,4164.615384615386,4209.23076923077,4198.97435897436,4207.179487179489,4211.794871794873,4206.153846153848,4205.128205128207,4162.051282051283,4198.46153846154,820.0,2046.0,2051.0,0.0,0.0,4.0,4.0,4.0,4.0,0.0,4.0,4.0,4.0,4.0,4.0,4.0,4.0,4.0,4.0,4.0,4.0
100.0,0.0,4201.538461538463,4147.179487179489,4188.71794871795,4197.94871794872,4180.512820512822,4161.538461538463,4183.589743589745,4211.794871794873,4216.923076923078,4217.94871794872,4216.410256410258,4212.8205128205145,4171.794871794873,4194.871794871797,873.0,2046.0,2051.0,0.0,0.0,4.0,4.0,4.0,4.0,0.0,4.0,4.0,4.0,4.0,4.0,4.0,4.0,4.0,4.0,4.0,4.0
101.0,0.0,4205.641025641027,4161.0256410256425,4185.641025641027,4193.333333333335,4182.564102564104,4171.794871794873,4189.743589743592,4211.794871794873,4213.333333333335,4218.46153846154,4208.71794871795,4220.512820512822,4170.256410256412,4200.512820512822,854.0,2047.0,2051.0,0.0,0.0,4.0,4.0,4.0,4.0,0.0,4.0,4.0,4.0,4.0,4.0,4.0,4.0,4.0,4.0,4.0,4.0
102.0,0.0,4200.512820512822,4191.794871794873,4180.000000000002,4196.410256410258,4180.000000000002,4172.307692307694,4215.897435897437,4196.410256410258,4203.076923076925,4212.8205128205145,4198.46153846154,4213.846153846155,4155.897435897437,4191.794871794873,866.0,2048.0,2050.0,0.0,0.0,4.0,4.0,4.0,4.0,0.0,4.0,4.0,4.0,4.0,4.0,4.0,4.0,4.0,4.0,4.0,4.0
103.0,0.0,4205.641025641027,4195.384615384617,4185.641025641027,4197.435897435899,4182.564102564104,4163.589743589745,4245.128205128207,4208.71794871795,4214.3589743589755,4215.384615384617,4212.8205128205145,4213.846153846155,4172.307692307694,4198.46153846154,820.0,2048.0,2049.0,0.0,0.0,4.0,4.0,4.0,4.0,0.0,4.0,4.0,4.0,4.0,4.0,4.0,4.0,4.0,4.0,4.0,4.0
104.0,0.0,4211.794871794873,4181.0256410256425,4196.410256410258,4190.256410256412,4184.615384615386,4168.71794871795,4254.3589743589755,4223.589743589745,4225.128205128207,4222.051282051283,4227.692307692309,4224.615384615386,4195.384615384617,4220.000000000002,873.0,2047.0,2046.0,0.0,0.0,4.0,4.0,4.0,4.0,0.0,4.0,4.0,4.0,4.0,4.0,4.0,4.0,4.0,4.0,4.0,4.0
105.0,0.0,4194.871794871797,4160.000000000002,4185.641025641027,4185.128205128207,4178.46153846154,4173.333333333335,4238.97435897436,4207.179487179489,4208.71794871795,4217.435897435899,4206.153846153848,4215.384615384617,4165.641025641027,4205.641025641027,854.0,2047.0,2043.0,0.0,0.0,4.0,4.0,4.0,4.0,0.0,4.0,4.0,4.0,4.0,4.0,4.0,4.0,4.0,4.0,4.0,4.0
106.0,0.0,4188.20512820513,4156.410256410258,4175.897435897437,4185.128205128207,4183.076923076925,4164.615384615386,4229.23076923077,4194.871794871797,4195.384615384617,4212.307692307694,4189.743589743592,4201.0256410256425,4142.051282051283,4187.179487179489,866.0,2048.0,2042.0,0.0,0.0,4.0,4.0,4.0,4.0,0.0,4.0,4.0,4.0,4.0,4.0,4.0,4.0,4.0,4.0,4.0,4.0
107.0,0.0,4199.487179487181,4168.20512820513,4182.051282051283,4188.71794871795,4183.076923076925,4158.46153846154,4225.641025641027,4198.97435897436,4201.0256410256425,4212.8205128205145,4201.538461538463,4205.641025641027,4162.564102564104,4191.794871794873,820.0,2046.0,2041.0,0.0,0.0,4.0,4.0,4.0,4.0,0.0,4.0,4.0,4.0,4.0,4.0,4.0,4.0,4.0,4.0,4.0,4.0
108.0,0.0,4205.641025641027,4171.282051282053,4189.23076923077,4202.564102564104,4181.538461538463,4164.102564102565,4227.179487179489,4200.512820512822,4206.666666666668,4215.384615384617,4211.282051282053,4218.97435897436,4178.46153846154,4205.641025641027,873.0,2045.0,2040.0,0.0,0.0,4.0,4.0,4.0,4.0,0.0,4.0,4.0,4.0,4.0,4.0,4.0,4.0,4.0,4.0,4.0,4.0
109.0,0.0,4210.769230769232,4174.871794871797,4196.923076923078,4215.897435897437,4187.692307692309,4169.743589743592,4248.71794871795,4206.153846153848,4213.846153846155,4216.923076923078,4213.846153846155,4232.307692307694,4171.794871794873,4216.410256410258,854.0,2046.0,2039.0,0.0,0.0,4.0,4.0,4.0,4.0,0.0,4.0,4.0,4.0,4.0,4.0,4.0,4.0,4.0,4.0,4.0,4.0
110.0,0.0,4215.897435897437,4190.769230769232,4206.153846153848,4216.923076923078,4184.615384615386,4168.20512820513,4265.128205128207,4218.97435897436,4222.051282051283,4216.923076923078,4219.487179487181,4236.923076923078,4172.307692307694,4215.897435897437,866.0,2046.0,2041.0,0.0,0.0,4.0,4.0,4.0,4.0,0.0,4.0,4.0,4.0,4.0,4.0,4.0,4.0,4.0,4.0,4.0,4.0
111.0,0.0,4205.641025641027,4178.97435897436,4202.564102564104,4197.435897435899,4183.589743589745,4168.20512820513,4248.71794871795,4217.435897435899,4216.410256410258,4215.384615384617,4219.487179487181,4223.589743589745,4170.769230769232,4205.128205128207,820.0,2046.0,2038.0,0.0,0.0,4.0,4.0,4.0,4.0,0.0,4.0,4.0,4.0,4.0,4.0,4.0,4.0,4.0,4.0,4.0,4.0
112.0,0.0,4190.256410256412,4157.94871794872,4186.666666666668,4169.23076923077,4183.076923076925,4167.692307692309,4227.179487179489,4201.538461538463,4206.666666666668,4214.3589743589755,4210.256410256412,4209.743589743592,4156.923076923078,4196.410256410258,873.0,2045.0,2037.0,0.0,0.0,4.0,4.0,4.0,4.0,0.0,4.0,4.0,4.0,4.0,4.0,4.0,4.0,4.0,4.0,4.0,4.0
113.0,0.0,4196.410256410258,4168.71794871795,4186.666666666668,4181.0256410256425,4181.538461538463,4169.23076923077,4228.71794871795,4198.97435897436,4208.20512820513,4212.307692307694,4207.692307692309,4213.333333333335,4154.871794871797,4195.897435897437,854.0,2044.0,2037.0,0.0,0.0,4.0,4.0,4.0,4.0,0.0,4.0,4.0,4.0,4.0,4.0,4.0,4.0,4.0,4.0,4.0,4.0
114.0,0.0,4207.179487179489,4160.512820512822,4201.0256410256425,4219.487179487181,4182.051282051283,4167.179487179489,4236.410256410258,4210.769230769232,4213.846153846155,4213.333333333335,4212.307692307694,4220.000000000002,4167.692307692309,4199.487179487181,866.0,2044.0,2039.0,0.0,0.0,4.0,4.0,4.0,4.0,0.0,4.0,4.0,4.0,4.0,4.0,4.0,4.0,4.0,4.0,4.0,4.0
115.0,0.0,4201.538461538463,4152.307692307694,4198.46153846154,4213.333333333335,4179.487179487181,4163.589743589745,4248.71794871795,4215.897435897437,4215.897435897437,4215.384615384617,4215.897435897437,4215.384615384617,4178.46153846154,4204.102564102565,820.0,2045.0,2038.0,0.0,0.0,4.0,4.0,4.0,4.0,0.0,4.0,4.0,4.0,4.0,4.0,4.0,4.0,4.0,4.0,4.0,4.0
116.0,0.0,4187.179487179489,4186.153846153848,4182.564102564104,4175.897435897437,4183.589743589745,4165.128205128207,4246.153846153848,4207.692307692309,4213.333333333335,4210.769230769232,4209.743589743592,4203.589743589745,4166.666666666668,4192.8205128205145,873.0,2044.0,2039.0,0.0,0.0,4.0,4.0,4.0,4.0,0.0,4.0,4.0,4.0,4.0,4.0,4.0,4.0,4.0,4.0,4.0,4.0
117.0,0.0,4164.102564102565,4168.71794871795,4163.076923076925,4150.769230769232,4181.0256410256425,4156.923076923078,4203.589743589745,4187.179487179489,4195.897435897437,4198.46153846154,4183.589743589745,4184.102564102565,4136.923076923078,4170.256410256412,854.0,2046.0,2041.0,0.0,0.0,4.0,4.0,4.0,4.0,0.0,4.0,4.0,4.0,4.0,4.0,4.0,4.0,4.0,4.0,4.0,4.0
118.0,0.0,4162.564102564104,4109.23076923077,4163.589743589745,4156.410256410258,4178.46153846154,4152.307692307694,4197.94871794872,4182.564102564104,4188.20512820513,4195.384615384617,4175.384615384617,4187.179487179489,4136.923076923078,4172.307692307694,866.0,2044.0,2040.0,0.0,0.0,4.0,4.0,4.0,4.0,0.0,4.0,4.0,4.0,4.0,4.0,4.0,4.0,4.0,4.0,4.0,4.0
119.0,0.0,4196.923076923078,4137.435897435899,4191.794871794873,4191.794871794873,4183.589743589745,4166.153846153848,4244.102564102565,4205.641025641027,4214.3589743589755,4208.20512820513,4207.692307692309,4215.897435897437,4173.846153846155,4200.000000000002,820.0,2044.0,2039.0,0.0,0.0,4.0,4.0,4.0,4.0,0.0,4.0,4.0,4.0,4.0,4.0,4.0,4.0,4.0,4.0,4.0,4.0
120.0,0.0,4213.333333333335,4200.512820512822,4201.0256410256425,4210.256410256412,4181.538461538463,4172.8205128205145,4230.256410256412,4215.384615384617,4228.20512820513,4216.923076923078,4225.641025641027,4222.051282051283,4195.384615384617,4213.846153846155,873.0,2044.0,2041.0,0.0,0.0,4.0,4.0,4.0,4.0,0.0,4.0,4.0,4.0,4.0,4.0,4.0,4.0,4.0,4.0,4.0,4.0
121.0,0.0,4200.512820512822,4188.71794871795,4191.282051282053,4203.076923076925,4183.589743589745,4168.20512820513,4165.128205128207,4211.794871794873,4217.94871794872,4214.3589743589755,4213.846153846155,4212.8205128205145,4186.666666666668,4202.051282051283,854.0,2044.0,2043.0,0.0,0.0,4.0,4.0,4.0,4.0,0.0,4.0,4.0,4.0,4.0,4.0,4.0,4.0,4.0,4.0,4.0,4.0
122.0,0.0,4196.923076923078,4181.538461538463,4188.20512820513,4197.435897435899,4183.076923076925,4167.692307692309,4137.94871794872,4214.3589743589755,4215.384615384617,4216.410256410258,4206.153846153848,4218.46153846154,4171.282051282053,4189.23076923077,866.0,2043.0,2043.0,0.0,0.0,4.0,4.0,4.0,4.0,0.0,4.0,4.0,4.0,4.0,4.0,4.0,4.0,4.0,4.0,4.0,4.0
123.0,0.0,4194.3589743589755,4184.615384615386,4187.179487179489,4183.076923076925,4183.076923076925,4166.153846153848,4140.512820512822,4209.23076923077,4216.410256410258,4215.897435897437,4206.666666666668,4216.923076923078,4167.179487179489,4192.307692307694,820.0,2042.0,2044.0,0.0,0.0,4.0,4.0,4.0,4.0,0.0,4.0,4.0,4.0,4.0,4.0,4.0,4.0,4.0,4.0,4.0,4.0
124.0,0.0,4193.333333333335,4151.282051282053,4193.333333333335,4172.307692307694,4187.179487179489,4162.564102564104,4146.153846153848,4198.97435897436,4212.8205128205145,4209.23076923077,4206.666666666668,4206.153846153848,4178.46153846154,4202.564102564104,873.0,2042.0,2042.0,0.0,0.0,4.0,4.0,4.0,4.0,0.0,4.0,4.0,4.0,4.0,4.0,4.0,4.0,4.0,4.0,4.0,4.0
125.0,0.0,4194.871794871797,4148.20512820513,4188.71794871795,4189.743589743592,4180.000000000002,4166.666666666668,4148.71794871795,4198.97435897436,4204.102564102565,4202.564102564104,4197.94871794872,4201.538461538463,4173.333333333335,4189.743589743592,854.0,2043.0,2042.0,0.0,0.0,4.0,4.0,4.0,4.0,0.0,4.0,4.0,4.0,4.0,4.0,4.0,4.0,4.0,4.0,4.0,4.0
126.0,0.0,4191.282051282053,4189.23076923077,4177.94871794872,4204.102564102565,4179.487179487181,4173.846153846155,4145.641025641027,4198.46153846154,4201.0256410256425,4201.538461538463,4192.307692307694,4200.000000000002,4161.0256410256425,4182.051282051283,866.0,2043.0,2043.0,0.0,0.0,4.0,4.0,4.0,4.0,0.0,4.0,4.0,4.0,4.0,4.0,4.0,4.0,4.0,4.0,4.0,4.0
127.0,0.0,4200.000000000002,4205.641025641027,4188.20512820513,4198.46153846154,4182.564102564104,4171.282051282053,4149.23076923077,4206.666666666668,4214.3589743589755,4207.692307692309,4210.769230769232,4211.794871794873,4179.487179487181,4205.641025641027,820.0,2042.0,2044.0,0.0,0.0,4.0,4.0,4.0,4.0,0.0,4.0,4.0,4.0,4.0,4.0,4.0,4.0,4.0,4.0,4.0,4.0
128.0,0.0,4203.076923076925,4191.282051282053,4192.307692307694,4195.897435897437,4180.512820512822,4167.692307692309,4133.333333333335,4213.846153846155,4217.435897435899,4209.743589743592,4216.410256410258,4217.94871794872,4188.20512820513,4207.692307692309,873.0,2041.0,2043.0,0.0,0.0,4.0,4.0,4.0,4.0,0.0,4.0,4.0,4.0,4.0,4.0,4.0,4.0,4.0,4.0,4.0,4.0
0.0,0.0,4186.153846153848,4171.794871794873,4176.923076923078,4189.23076923077,4183.076923076925,4168.20512820513,4109.23076923077,4193.333333333335,4200.512820512822,4202.564102564104,4191.794871794873,4203.589743589745,4164.102564102565,4188.71794871795,814.0,2042.0,2045.0,0.0,0.0,4.0,4.0,4.0,4.0,0.0,4.0,4.0,4.0,4.0,4.0,4.0,4.0,4.0,4.0,4.0,4.0
1.0,0.0,4176.923076923078,4160.000000000002,4172.8205128205145,4180.512820512822,4183.076923076925,4164.102564102565,4124.102564102565,4182.564102564104,4196.410256410258,4198.46153846154,4186.153846153848,4195.384615384617,4159.487179487181,4185.641025641027,845.0,2042.0,2047.0,0.0,0.0,4.0,4.0,4.0,4.0,0.0,4.0,4.0,4.0,4.0,4.0,4.0,4.0,4.0,4.0,4.0,4.0
2.0,0.0,4190.769230769232,4175.384615384617,4183.076923076925,4181.0256410256425,4185.128205128207,4166.153846153848,4142.051282051283,4205.641025641027,4207.179487179489,4201.0256410256425,4204.615384615386,4202.051282051283,4175.384615384617,4191.282051282053,835.0,2043.0,2048.0,0.0,0.0,4.0,4.0,4.0,4.0,0.0,4.0,4.0,4.0,4.0,4.0,4.0,4.0,4.0,4.0,4.0,4.0
3.0,0.0,4206.666666666668,4195.897435897437,4187.179487179489,4194.871794871797,4186.666666666668,4175.384615384617,4130.256410256412,4220.512820512822,4215.897435897437,4207.179487179489,4211.282051282053,4216.410256410258,4180.000000000002,4195.897435897437,838.0,2042.0,2050.0,0.0,0.0,4.0,4.0,4.0,4.0,0.0,4.0,4.0,4.0,4.0,4.0,4.0,4.0,4.0,4.0,4.0,4.0
4.0,0.0,4207.692307692309,4193.846153846155,4196.410256410258,4214.3589743589755,4181.538461538463,4177.94871794872,4154.871794871797,4217.94871794872,4223.076923076925,4213.333333333335,4214.3589743589755,4231.794871794873,4187.179487179489,4197.435897435899,0.0,2043.0,2052.0,0.0,0.0,4.0,4.0,4.0,4.0,0.0,4.0,4.0,4.0,4.0,4.0,4.0,4.0,4.0,4.0,4.0,4.0
5.0,0.0,4194.871794871797,4179.487179487181,4196.923076923078,4209.23076923077,4183.076923076925,4173.846153846155,4190.256410256412,4206.153846153848,4214.871794871797,4208.20512820513,4211.282051282053,4218.46153846154,4181.538461538463,4191.282051282053,603.0,2045.0,2053.0,0.0,0.0,4.0,4.0,4.0,4.0,0.0,4.0,4.0,4.0,4.0,4.0,4.0,4.0,4.0,4.0,4.0,4.0
6.0,0.0,4183.589743589745,4171.794871794873,4180.000000000002,4186.666666666668,4181.538461538463,4168.20512820513,4191.282051282053,4187.179487179489,4194.871794871797,4196.923076923078,4192.8205128205145,4191.794871794873,4161.538461538463,4188.20512820513,802.0,2046.0,2053.0,0.0,0.0,4.0,4.0,4.0,4.0,0.0,4.0,4.0,4.0,4.0,4.0,4.0,4.0,4.0,4.0,4.0,4.0
7.0,0.0,4191.794871794873,4176.410256410258,4182.051282051283,4176.410256410258,4182.051282051283,4170.769230769232,4214.3589743589755,4185.641025641027,4196.410256410258,4198.97435897436,4188.71794871795,4199.487179487181,4161.538461538463,4192.307692307694,856.0,2046.0,2052.0,0.0,0.0,4.0,4.0,4.0,4.0,0.0,4.0,4.0,4.0,4.0,4.0,4.0,4.0,4.0,4.0,4.0,4.0
8.0,0.0,4185.641025641027,4173.333333333335,4180.000000000002,4172.307692307694,4185.128205128207,4176.410256410258,4247.179487179489,4178.97435897436,4191.794871794873,4200.000000000002,4184.615384615386,4197.435897435899,4157.435897435899,4172.8205128205145,844.0,2048.0,2052.0,0.0,0.0,4.0,4.0,4.0,4.0,0.0,4.0,4.0,4.0,4.0,4.0,4.0,4.0,4.0,4.0,4.0,4.0
9.0,0.0,4175.384615384617,4170.769230769232,4168.71794871795,4181.0256410256425,4181.0256410256425,4175.897435897437,4259.487179487181,4166.666666666668,4176.410256410258,4194.3589743589755,4175.897435897437,4182.051282051283,4150.256410256412,4166.666666666668,302.0,2048.0,2051.0,0.0,0.0,4.0,4.0,4.0,4.0,0.0,4.0,4.0,4.0,4.0,4.0,4.0,4.0,4.0,4.0,4.0,4.0
10.0,0.0,4203.076923076925,4182.564102564104,4190.256410256412,4202.051282051283,4183.076923076925,4174.871794871797,4293.846153846155,4186.153846153848,4197.435897435899,4199.487179487181,4195.384615384617,4207.179487179489,4176.410256410258,4202.051282051283,861.0,2048.0,2051.0,0.0,0.0,4.0,4.0,4.0,4.0,0.0,4.0,4.0,4.0,4.0,4.0,4.0,4.0,4.0,4.0,4.0,4.0
11.0,0.0,4220.512820512822,4201.0256410256425,4204.102564102565,4204.102564102565,4184.615384615386,4175.384615384617,4330.256410256412,4203.589743589745,4218.46153846154,4205.641025641027,4211.282051282053,4222.051282051283,4197.94871794872,4216.923076923078,815.0,2049.0,2049.0,0.0,0.0,4.0,4.0,4.0,4.0,0.0,4.0,4.0,4.0,4.0,4.0,4.0,4.0,4.0,4.0,4.0,4.0
12.0,0.0,4198.97435897436,4186.666666666668,4182.564102564104,4191.794871794873,4184.102564102565,4176.923076923078,4340.512820512822,4187.179487179489,4197.94871794872,4199.487179487181,4190.769230769232,4201.0256410256425,4175.897435897437,4191.794871794873,851.0,2048.0,2049.0,0.0,0.0,4.0,4.0,4.0,4.0,0.0,4.0,4.0,4.0,4.0,4.0,4.0,4.0,4.0,4.0,4.0,4.0
13.0,0.0,4186.153846153848,4150.769230769232,4175.384615384617,4180.512820512822,4183.589743589745,4176.923076923078,4335.897435897437,4175.897435897437,4178.97435897436,4192.8205128205145,4171.282051282053,4193.846153846155,4157.435897435899,4174.3589743589755,848.0,2049.0,2048.0,0.0,0.0,4.0,4.0,4.0,4.0,0.0,4.0,4.0,4.0,4.0,4.0,4.0,4.0,4.0,4.0,4.0,4.0
14.0,0.0,4196.923076923078,4165.128205128207,4189.23076923077,4179.487179487181,4182.051282051283,4174.871794871797,4302.564102564104,4188.71794871795,4193.333333333335,4197.435897435899,4187.179487179489,4202.564102564104,4173.846153846155,4186.153846153848,861.0,2047.0,2046.0,0.0,0.0,4.0,4.0,4.0,4.0,0.0,4.0,4.0,4.0,4.0,4.0,4.0,4.0,4.0,4.0,4.0,4.0
15.0,0.0,4201.538461538463,4198.46153846154,4193.333333333335,4195.897435897437,4186.153846153848,4177.435897435899,4286.153846153848,4189.743589743592,4206.666666666668,4203.076923076925,4203.589743589745,4206.666666666668,4186.153846153848,4195.897435897437,815.0,2046.0,2044.0,0.0,0.0,4.0,4.0,4.0,4.0,0.0,4.0,4.0,4.0,4.0,4.0,4.0,4.0,4.0,4.0,4.0,4.0
16.0,0.0,4207.692307692309,4205.641025641027,4192.307692307694,4206.666666666668,4182.564102564104,4177.94871794872,4310.256410256412,4183.589743589745,4205.128205128207,4202.564102564104,4202.051282051283,4216.923076923078,4186.153846153848,4194.871794871797,0.0,2045.0,2044.0,0.0,0.0,4.0,4.0,4.0,4.0,0.0,4.0,4.0,4.0,4.0,4.0,4.0,4.0,4.0,4.0,4.0,4.0
17.0,0.0,4215.384615384617,4205.128205128207,4191.794871794873,4194.871794871797,4181.0256410256425,4176.410256410258,4286.666666666668,4187.179487179489,4205.128205128207,4201.0256410256425,4201.0256410256425,4217.94871794872,4189.23076923077,4197.94871794872,0.0,2046.0,2045.0,0.0,0.0,4.0,4.0,4.0,4.0,0.0,4.0,4.0,4.0,4.0,4.0,4.0,4.0,4.0,4.0,4.0,4.0
18.0,0.0,4203.589743589745,4192.8205128205145,4190.256410256412,4187.179487179489,4187.179487179489,4178.97435897436,4231.282051282053,4190.769230769232,4205.128205128207,4202.051282051283,4196.923076923078,4205.128205128207,4175.384615384617,4194.871794871797,0.0,2046.0,2045.0,0.0,0.0,4.0,4.0,4.0,4.0,0.0,4.0,4.0,4.0,4.0,4.0,4.0,4.0,4.0,4.0,4.0,4.0
19.0,0.0,4191.282051282053,4169.743589743592,4187.692307692309,4186.153846153848,4185.128205128207,4176.410256410258,4231.794871794873,4186.153846153848,4197.94871794872,4199.487179487181,4181.0256410256425,4198.46153846154,4153.333333333335,4182.564102564104,0.0,2045.0,2044.0,0.0,0.0,4.0,4.0,4.0,4.0,0.0,4.0,4.0,4.0,4.0,4.0,4.0,4.0,4.0,4.0,4.0,4.0
20.0,0.0,4196.923076923078,4154.3589743589755,4187.179487179489,4183.589743589745,4184.615384615386,4174.3589743589755,4263.589743589745,4183.076923076925,4195.897435897437,4197.435897435899,4181.538461538463,4202.051282051283,4160.512820512822,4187.179487179489,0.0,2045.0,2042.0,0.0,0.0,4.0,4.0,4.0,4.0,0.0,4.0,4.0,4.0,4.0,4.0,4.0,4.0,4.0,4.0,4.0,4.0
21.0,0.0,4204.102564102565,4166.666666666668,4192.8205128205145,4192.8205128205145,4183.076923076925,4177.435897435899,4262.051282051283,4194.3589743589755,4210.769230769232,4206.153846153848,4203.589743589745,4215.897435897437,4187.692307692309,4204.615384615386,0.0,2046.0,2043.0,0.0,0.0,4.0,4.0,4.0,4.0,0.0,4.0,4.0,4.0,4.0,4.0,4.0,4.0,4.0,4.0,4.0,4.0
22.0,0.0,4214.3589743589755,4208.71794871795,4202.051282051283,4201.538461538463,4182.564102564104,4178.46153846154,4250.769230769232,4208.20512820513,4228.20512820513,4214.3589743589755,4219.487179487181,4227.692307692309,4201.0256410256425,4212.8205128205145,0.0,2046.0,2042.0,0.0,0.0,4.0,4.0,4.0,4.0,0.0,4.0,4.0,4.0,4.0,4.0,4.0,4.0,4.0,4.0,4.0,4.0
23.0,0.0,4219.487179487181,4212.307692307694,4205.641025641027,4189.743589743592,4184.615384615386,4181.0256410256425,4264.615384615386,4201.538461538463,4226.153846153848,4208.71794871795,4217.435897435899,4225.641025641027,4184.615384615386,4206.666666666668,0.0,2047.0,2042.0,0.0,0.0,4.0,4.0,4.0,4.0,0.0,4.0,4.0,4.0,4.0,4.0,4.0,4.0,4.0,4.0,4.0,4.0
24.0,0.0,4212.307692307694,4186.153846153848,4199.487179487181,4187.179487179489,4182.051282051283,4182.051282051283,4270.769230769232,4188.20512820513,4214.871794871797,4198.97435897436,4209.743589743592,4224.615384615386,4167.179487179489,4196.410256410258,0.0,2047.0,2042.0,0.0,0.0,4.0,4.0,4.0,4.0,0.0,4.0,4.0,4.0,4.0,4.0,4.0,4.0,4.0,4.0,4.0,4.0
25.0,0.0,4217.435897435899,4206.153846153848,4201.538461538463,4203.076923076925,4183.589743589745,4176.410256410258,4225.641025641027,4191.282051282053,4222.051282051283,4202.051282051283,4214.871794871797,4233.846153846155,4187.692307692309,4207.692307692309,0.0,2047.0,2043.0,0.0,0.0,4.0,4.0,4.0,4.0,0.0,4.0,4.0,4.0,4.0,4.0,4.0,4.0,4.0,4.0,4.0,4.0
26.0,0.0,4225.641025641027,4213.846153846155,4204.615384615386,4204.615384615386,4182.564102564104,4172.307692307694,4166.153846153848,4200.512820512822,4234.871794871797,4211.794871794873,4220.512820512822,4231.794871794873,4209.23076923077,4224.615384615386,0.0,2049.0,2046.0,0.0,0.0,4.0,4.0,4.0,4.0,0.0,4.0,4.0,4.0,4.0,4.0,4.0,4.0,4.0,4.0,4.0,4.0
27.0,0.0,4213.333333333335,4176.410256410258,4197.435897435899,4195.384615384617,4183.076923076925,4182.051282051283,4156.410256410258,4201.0256410256425,4229.743589743592,4211.794871794873,4210.256410256412,4216.923076923078,4192.8205128205145,4212.8205128205145,0.0,2049.0,2042.0,0.0,0.0,4.0,4.0,4.0,4.0,0.0,4.0,4.0,4.0,4.0,4.0,4.0,4.0,4.0,4.0,4.0,4.0
28.0,0.0,4214.871794871797,4192.8205128205145,4197.94871794872,4204.102564102565,4189.23076923077,4186.666666666668,4158.97435897436,4202.051282051283,4224.102564102565,4214.3589743589755,4209.743589743592,4218.46153846154,4182.564102564104,4204.615384615386,0.0,2049.0,2042.0,0.0,0.0,4.0,4.0,4.0,4.0,0.0,4.0,4.0,4.0,4.0,4.0,4.0,4.0,4.0,4.0,4.0,4.0
29.0,0.0,4211.794871794873,4214.871794871797,4186.666666666668,4200.512820512822,4183.589743589745,4173.333333333335,4133.846153846155,4197.435897435899,4217.94871794872,4213.846153846155,4210.769230769232,4214.871794871797,4178.97435897436,4197.435897435899,0.0,2050.0,2043.0,0.0,0.0,4.0,4.0,4.0,4.0,0.0,4.0,4.0,4.0,4.0,4.0,4.0,4.0,4.0,4.0,4.0,4.0
30.0,0.0,4191.282051282053,4173.846153846155,4170.256410256412,4185.128205128207,4181.538461538463,4173.333333333335,4097.435897435899,4187.179487179489,4208.71794871795,4206.666666666668,4198.97435897436,4201.0256410256425,4158.97435897436,4182.564102564104,0.0,2049.0,2043.0,0.0,0.0,4.0,4.0,4.0,4.0,0.0,4.0,4.0,4.0,4.0,4.0,4.0,4.0,4.0,4.0,4.0,4.0
31.0,0.0,4200.512820512822,4170.769230769232,4178.46153846154,4185.641025641027,4185.128205128207,4180.512820512822,4054.358974358976,4186.666666666668,4212.307692307694,4208.20512820513,4199.487179487181,4205.128205128207,4166.153846153848,4189.23076923077,0.0,2047.0,2042.0,0.0,0.0,4.0,4.0,4.0,4.0,0.0,4.0,4.0,4.0,4.0,4.0,4.0,4.0,4.0,4.0,4.0,4.0
32.0,0.0,4208.20512820513,4192.8205128205145,4180.512820512822,4184.615384615386,4182.564102564104,4174.871794871797,4045.1282051282064,4180.512820512822,4207.692307692309,4209.743589743592,4200.000000000002,4205.128205128207,4186.666666666668,4192.8205128205145,0.0,2045.0,2042.0,0.0,0.0,4.0,4.0,4.0,4.0,0.0,4.0,4.0,4.0,4.0,4.0,4.0,4.0,4.0,4.0,4.0,4.0
33.0,0.0,4193.846153846155,4189.23076923077,4172.307692307694,4181.0256410256425,4182.564102564104,4174.871794871797,4074.358974358976,4172.307692307694,4198.97435897436,4208.20512820513,4192.8205128205145,4197.435897435899,4182.051282051283,4187.692307692309,0.0,2045.0,2042.0,0.0,0.0,4.0,4.0,4.0,4.0,0.0,4.0,4.0,4.0,4.0,4.0,4.0,4.0,4.0,4.0,4.0,4.0
34.0,0.0,4202.564102564104,4203.076923076925,4184.615384615386,4195.384615384617,4182.564102564104,4181.538461538463,4073.846153846155,4191.282051282053,4212.8205128205145,4213.846153846155,4203.076923076925,4215.897435897437,4184.102564102565,4200.512820512822,0.0,2046.0,2042.0,0.0,0.0,4.0,4.0,4.0,4.0,0.0,4.0,4.0,4.0,4.0,4.0,4.0,4.0,4.0,4.0,4.0,4.0
35.0,0.0,4214.871794871797,4198.97435897436,4195.384615384617,4205.641025641027,4186.666666666668,4181.0256410256425,4028.2051282051298,4202.051282051283,4219.487179487181,4220.512820512822,4212.307692307694,4226.153846153848,4185.641025641027,4202.051282051283,0.0,2045.0,2042.0,0.0,0.0,4.0,4.0,4.0,4.0,0.0,4.0,4.0,4.0,4.0,4.0,4.0,4.0,4.0,4.0,4.0,4.0
36.0,0.0,4205.128205128207,4177.435897435899,4185.128205128207,4183.589743589745,4185.128205128207,4176.410256410258,3984.102564102566,4187.179487179489,4204.102564102565,4216.923076923078,4202.051282051283,4208.71794871795,4171.282051282053,4188.20512820513,0.0,2045.0,2042.0,0.0,0.0,4.0,4.0,4.0,4.0,0.0,4.0,4.0,4.0,4.0,4.0,4.0,4.0,4.0,4.0,4.0,4.0
37.0,0.0,4186.666666666668,4177.94871794872,4174.3589743589755,4170.256410256412,4179.487179487181,4172.8205128205145,3953.333333333335,4177.94871794872,4196.410256410258,4209.23076923077,4190.769230769232,4201.0256410256425,4164.615384615386,4187.692307692309,0.0,2045.0,2042.0,0.0,0.0,4.0,4.0,4.0,4.0,0.0,4.0,4.0,4.0,4.0,4.0,4.0,4.0,4.0,4.0,4.0,4.0
38.0,0.0,4175.897435897437,4171.794871794873,4177.94871794872,4174.3589743589755,4186.666666666668,4174.871794871797,3936.9230769230785,4185.128205128207,4203.589743589745,4210.769230769232,4193.333333333335,4205.641025641027,4171.794871794873,4187.179487179489,0.0,2046.0,2042.0,0.0,0.0,4.0,4.0,4.0,4.0,0.0,4.0,4.0,4.0,4.0,4.0,4.0,4.0,4.0,4.0,4.0,4.0
39.0,0.0,4180.512820512822,4175.384615384617,4183.076923076925,4169.23076923077,4184.615384615386,4174.871794871797,3934.358974358976,4188.71794871795,4206.666666666668,4210.256410256412,4200.512820512822,4206.666666666668,4177.435897435899,4180.000000000002,0.0,2044.0,2043.0,0.0,0.0,4.0,4.0,4.0,4.0,0.0,4.0,4.0,4.0,4.0,4.0,4.0,4.0,4.0,4.0,4.0,4.0
40.0,0.0,4198.46153846154,4203.076923076925,4191.282051282053,4176.410256410258,4180.000000000002,4169.23076923077,3918.46153846154,4191.794871794873,4211.282051282053,4206.666666666668,4207.692307692309,4216.410256410258,4181.0256410256425,4194.871794871797,0.0,2044.0,2043.0,0.0,0.0,4.0,4.0,4.0,4.0,0.0,4.0,4.0,4.0,4.0,4.0,4.0,4.0,4.0,4.0,4.0,4.0
41.0,0.0,4194.3589743589755,4186.153846153848,4189.23076923077,4185.641025641027,4182.564102564104,4162.051282051283,3920.0000000000014,4189.743589743592,4208.20512820513,4207.692307692309,4206.153846153848,4214.3589743589755,4172.307692307694,4196.923076923078,0.0,2044.0,2043.0,0.0,0.0,4.0,4.0,4.0,4.0,0.0,4.0,4.0,4.0,4.0,4.0,4.0,4.0,4.0,4.0,4.0,4.0
42.0,0.0,4170.769230769232,4150.256410256412,4176.410256410258,4164.102564102565,4182.564102564104,4161.538461538463,3977.9487179487196,4172.8205128205145,4193.333333333335,4211.282051282053,4189.23076923077,4189.743589743592,4155.897435897437,4172.307692307694,0.0,2043.0,2043.0,0.0,0.0,4.0,4.0,4.0,4.0,0.0,4.0,4.0,4.0,4.0,4.0,4.0,4.0,4.0,4.0,4.0,4.0
43.0,0.0,4183.076923076925,4185.641025641027,4183.076923076925,4161.0256410256425,4187.179487179489,4167.692307692309,4040.512820512822,4169.743589743592,4197.94871794872,4213.333333333335,4192.307692307694,4196.923076923078,4168.20512820513,4185.128205128207,0.0,2041.0,2044.0,0.0,0.0,4.0,4.0,4.0,4.0,0.0,4.0,4.0,4.0,4.0,4.0,4.0,4.0,4.0,4.0,4.0,4.0
44.0,0.0,4214.3589743589755,4224.615384615386,4185.641025641027,4206.153846153848,4188.20512820513,4171.282051282053,4047.692307692309,4198.97435897436,4221.0256410256425,4219.487179487181,4216.410256410258,4233.846153846155,4195.384615384617,4218.46153846154,0.0,2041.0,2044.0,0.0,0.0,4.0,4.0,4.0,4.0,0.0,4.0,4.0,4.0,4.0,4.0,4.0,4.0,4.0,4.0,4.0,4.0
45.0,0.0,4204.102564102565,4193.846153846155,4152.8205128205145,4204.102564102565,4186.153846153848,4171.282051282053,4028.71794871795,4202.564102564104,4214.3589743589755,4222.564102564104,4209.23076923077,4228.20512820513,4186.153846153848,4199.487179487181,0.0,2042.0,2044.0,0.0,0.0,4.0,4.0,4.0,4.0,0.0,4.0,4.0,4.0,4.0,4.0,4.0,4.0,4.0,4.0,4.0,4.0
46.0,0.0,4179.487179487181,4187.179487179489,4135.384615384617,4164.615384615386,4187.179487179489,4169.23076923077,4037.9487179487196,4180.512820512822,4195.384615384617,4216.410256410258,4191.282051282053,4203.076923076925,4167.692307692309,4172.307692307694,0.0,2040.0,2043.0,0.0,0.0,4.0,4.0,4.0,4.0,0.0,4.0,4.0,4.0,4.0,4.0,4.0,4.0,4.0,4.0,4.0,4.0
47.0,0.0,4187.692307692309,4210.256410256412,4156.923076923078,4183.076923076925,4184.615384615386,4162.564102564104,4051.7948717948734,4191.794871794873,4211.794871794873,4217.94871794872,4209.743589743592,4215.384615384617,4189.743589743592,4198.46153846154,0.0,2040.0,2040.0,0.0,0.0,4.0,4.0,4.0,4.0,0.0,4.0,4.0,4.0,4.0,4.0,4.0,4.0,4.0,4.0,4.0,4.0
48.0,0.0,4190.256410256412,4180.512820512822,4156.923076923078,4199.487179487181,4184.102564102565,4158.46153846154,4048.71794871795,4188.71794871795,4211.282051282053,4220.000000000002,4204.615384615386,4213.846153846155,4186.666666666668,4201.0256410256425,0.0,2039.0,2039.0,0.0,0.0,4.0,4.0,4.0,4.0,0.0,4.0,4.0,4.0,4.0,4.0,4.0,4.0,4.0,4.0,4.0,4.0
49.0,0.0,4166.666666666668,4152.8205128205145,4128.71794871795,4162.051282051283,4181.538461538463,4158.97435897436,4061.5384615384633,4150.769230769232,4176.923076923078,4208.71794871795,4166.153846153848,4177.435897435899,4147.179487179489,4153.846153846155,0.0,2040.0,2039.0,0.0,0.0,4.0,4.0,4.0,4.0,0.0,4.0,4.0,4.0,4.0,4.0,4.0,4.0,4.0,4.0,4.0,4.0
50.0,0.0,4171.794871794873,4201.538461538463,4136.923076923078,4150.256410256412,4182.051282051283,4165.128205128207,4101.538461538463,4164.102564102565,4185.128205128207,4209.743589743592,4184.102564102565,4187.692307692309,4161.0256410256425,4161.0256410256425,0.0,2039.0,2039.0,0.0,0.0,4.0,4.0,4.0,4.0,0.0,4.0,4.0,4.0,4.0,4.0,4.0,4.0,4.0,4.0,4.0,4.0
51.0,0.0,4192.307692307694,4227.692307692309,4162.051282051283,4189.23076923077,4183.076923076925,4168.20512820513,4126.666666666668,4197.94871794872,4214.871794871797,4222.051282051283,4217.94871794872,4225.128205128207,4196.923076923078,4205.128205128207,0.0,2039.0,2039.0,0.0,0.0,4.0,4.0,4.0,4.0,0.0,4.0,4.0,4.0,4.0,4.0,4.0,4.0,4.0,4.0,4.0,4.0
52.0,0.0,4175.897435897437,4168.71794871795,4150.769230769232,4203.589743589745,4177.435897435899,4164.102564102565,4112.8205128205145,4178.46153846154,4200.000000000002,4214.871794871797,4195.384615384617,4207.179487179489,4178.97435897436,4193.846153846155,0.0,2037.0,2039.0,0.0,0.0,4.0,4.0,4.0,4.0,0.0,4.0,4.0,4.0,4.0,4.0,4.0,4.0,4.0,4.0,4.0,4.0
53.0,0.0,4163.076923076925,4165.641025641027,4147.179487179489,4194.3589743589755,4181.538461538463,4170.769230769232,4123.076923076925,4169.743589743592,4190.769230769232,4205.128205128207,4184.615384615386,4193.846153846155,4158.46153846154,4182.564102564104,0.0,2036.0,2039.0,0.0,0.0,4.0,4.0,4.0,4.0,0.0,4.0,4.0,4.0,4.0,4.0,4.0,4.0,4.0,4.0,4.0,4.0
54.0,0.0,4175.897435897437,4227.179487179489,4163.076923076925,4184.102564102565,4186.666666666668,4177.435897435899,4161.0256410256425,4197.94871794872,4211.794871794873,4212.8205128205145,4206.666666666668,4221.0256410256425,4175.384615384617,4196.923076923078,0.0,2036.0,2040.0,0.0,0.0,4.0,4.0,4.0,4.0,0.0,4.0,4.0,4.0,4.0,4.0,4.0,4.0,4.0,4.0,4.0,4.0
55.0,0.0,4173.333333333335,4218.46153846154,4158.97435897436,4169.743589743592,4186.666666666668,4170.769230769232,4167.692307692309,4201.538461538463,4213.333333333335,4216.923076923078,4205.641025641027,4222.051282051283,4181.538461538463,4189.23076923077,0.0,2037.0,2040.0,0.0,0.0,4.0,4.0,4.0,4.0,0.0,4.0,4.0,4.0,4.0,4.0,4.0,4.0,4.0,4.0,4.0,4.0
56.0,0.0,4163.589743589745,4181.538461538463,4150.769230769232,4177.94871794872,4185.641025641027,4166.666666666668,4165.641025641027,4186.666666666668,4206.666666666668,4215.384615384617,4198.97435897436,4204.102564102565,4180.512820512822,4186.666666666668,0.0,2038.0,2039.0,0.0,0.0,4.0,4.0,4.0,4.0,0.0,4.0,4.0,4.0,4.0,4.0,4.0,4.0,4.0,4.0,4.0,4.0
57.0,0.0,4157.94871794872,4184.615384615386,4146.666666666668,4188.20512820513,4180.512820512822,4162.564102564104,4153.846153846155,4171.794871794873,4194.871794871797,4209.23076923077,4187.692307692309,4193.846153846155,4175.897435897437,4191.282051282053,0.0,2040.0,2041.0,0.0,0.0,4.0,4.0,4.0,4.0,0.0,4.0,4.0,4.0,4.0,4.0,4.0,4.0,4.0,4.0,4.0,4.0
58.0,0.0,4166.666666666668,4202.564102564104,4153.846153846155,4177.435897435899,4184.102564102565,4163.589743589745,4081.0256410256425,4168.71794871795,4185.128205128207,4205.128205128207,4174.871794871797,4194.871794871797,4167.179487179489,4190.769230769232,0.0,2038.0,2041.0,0.0,0.0,4.0,4.0,4.0,4.0,0.0,4.0,4.0,4.0,4.0,4.0,4.0,4.0,4.0,4.0,4.0,4.0
59.0,0.0,4177.94871794872,4206.153846153848,4162.564102564104,4177.435897435899,4184.102564102565,4174.871794871797,4002.564102564104,4182.051282051283,4196.923076923078,4210.256410256412,4185.641025641027,4208.71794871795,4174.871794871797,4195.897435897437,0.0,2042.0,2041.0,0.0,0.0,4.0,4.0,4.0,4.0,0.0,4.0,4.0,4.0,4.0,4.0,4.0,4.0,4.0,4.0,4.0,4.0
60.0,0.0,4170.769230769232,4194.3589743589755,4156.923076923078,4190.769230769232,4180.000000000002,4173.846153846155,4002.564102564104,4191.794871794873,4204.615384615386,4214.871794871797,4198.97435897436,4216.923076923078,4186.666666666668,4190.256410256412,0.0,2042.0,2042.0,0.0,0.0,4.0,4.0,4.0,4.0,0.0,4.0,4.0,4.0,4.0,4.0,4.0,4.0,4.0,4.0,4.0,4.0
61.0,0.0,4177.435897435899,4207.692307692309,4169.23076923077,4193.333333333335,4184.615384615386,4169.743589743592,4021.5384615384633,4203.076923076925,4213.846153846155,4216.410256410258,4208.20512820513,4221.0256410256425,4198.46153846154,4194.871794871797,0.0,2044.0,2043.0,0.0,0.0,4.0,4.0,4.0,4.0,0.0,4.0,4.0,4.0,4.0,4.0,4.0,4.0,4.0,4.0,4.0,4.0
